Data from Philips_4000K_2,3W_485Lumen_600ms_1__0__15-30-16-298.txt Node

Date: Thu Dec 18 15:30:16 CET 2025
User: Stefan
Spectrometer: ?
Trigger mode: 0
Integration Time (sec): 6,000000E-1
Scans to average: 1
Electric dark correction enabled: true
Nonlinearity correction enabled: true
Boxcar width: 0
XAxis mode: Wavelengths
Number of Pixels in Spectrum: 3648
>>>>>Begin Spectral Data<<<<<
195,033	-739,50494
195,299	-739,50494
195,565	-739,50494
195,831	-794,75166
196,098	-690,17837
196,364	341,60754
196,63	-58,85392
196,896	-100,28212
197,162	45,70187
197,428	69,37468
197,694	-13,48046
197,96	-262,05213
198,226	104,88376
198,492	-15,45322
198,757	-27,28974
199,023	-116,06437
199,289	31,8927
199,555	511,25669
199,821	51,62008
200,087	77,2656
200,353	156,1744
200,618	75,29287
200,884	434,32302
201,15	73,32014
201,416	20,05625
201,682	166,03795
201,947	649,34192
202,213	87,12924
202,479	93,04742
202,744	37,81092
203,01	225,21903
203,276	373,17033
203,541	181,81961
203,807	189,71042
204,073	177,87419
204,338	183,79231
204,604	112,77465
204,869	142,36541
205,135	118,69281
205,401	104,88376
205,666	171,95607
205,932	274,53634
206,197	315,96272
206,463	134,47455
206,728	400,78771
206,994	-98,30934
207,259	229,16443
207,524	339,63486
207,79	118,69281
208,055	130,52912
208,321	22,029
208,586	185,76502
208,851	162,09253
209,117	312,01735
209,382	-151,57456
209,647	83,18379
209,913	495,47545
210,178	475,74889
210,443	365,27964
210,708	-50,96286
210,974	-37,15353
211,239	379,08834
211,504	227,19173
211,769	306,09931
212,034	554,65501
212,3	227,19173
212,565	-54,90839
212,83	162,09253
213,095	55,56555
213,36	219,30094
213,625	67,40195
213,89	225,21903
214,155	164,06524
214,42	406,70571
214,685	181,81961
214,95	278,48172
215,215	302,15394
215,48	331,74415
215,745	467,85825
216,01	-27,28974
216,275	408,67837
216,54	317,9354
216,805	-47,01734
217,07	65,42922
217,335	-45,04457
217,6	383,03368
217,864	81,21106
218,129	418,5417
218,394	298,20858
218,659	45,70187
218,924	235,08251
219,188	235,08251
219,453	339,63486
219,718	572,40884
219,983	260,72752
220,247	173,92878
220,512	201,54664
220,777	572,40884
221,041	377,11567
221,306	797,28944
221,571	181,81961
221,835	534,92852
222,1	164,06524
222,364	134,47455
222,629	422,48703
222,894	130,52912
223,158	63,45649
223,423	169,98336
223,687	39,78366
223,952	-76,60883
224,216	199,57394
224,481	485,61217
224,745	-88,44547
225,009	244,94599
225,274	590,16266
225,538	554,65501
225,803	448,13165
226,067	166,03795
226,331	102,91104
226,596	-3,61671
226,86	471,80357
227,124	714,43894
227,389	122,63825
227,653	497,44811
227,917	242,97329
228,181	118,69281
228,446	223,24634
228,71	-21,37148
228,974	142,36541
229,238	379,08834
229,502	169,98336
229,767	168,01066
230,031	290,31784
230,295	430,37769
230,559	146,31084
230,823	128,5564
231,087	286,37247
231,351	888,03022
231,615	874,22186
231,879	132,50183
232,143	262,70021
232,407	357,38894
232,671	203,51934
232,935	248,89137
233,199	213,38285
233,463	329,77147
233,727	381,06101
233,991	51,62008
234,255	325,82612
234,519	588,19001
234,783	47,67461
235,047	65,42922
235,311	195,62854
235,574	65,42922
235,838	116,72009
236,102	221,27364
236,366	345,55289
236,63	217,32824
236,893	203,51934
237,157	410,65104
237,421	264,6729
237,684	304,12663
237,948	77,2656
238,212	98,96559
238,475	300,18126
238,739	369,22498
239,003	538,87382
239,266	742,0558
239,53	337,66219
239,794	122,63825
240,057	138,41998
240,321	266,64559
240,584	185,76502
240,848	126,58368
241,111	-45,04457
241,375	365,27964
241,638	619,75231
241,902	345,55289
242,165	256,78214
242,429	160,11982
242,692	306,09931
242,955	108,82921
243,219	434,32302
243,482	475,74889
243,746	-9,53496
244,009	363,30697
244,272	335,68951
244,536	379,08834
244,799	463,91294
245,062	158,14711
245,325	268,61828
245,589	250,86406
245,852	280,45441
246,115	505,33873
246,378	-125,92829
246,641	343,58022
246,905	169,98336
247,168	235,08251
247,431	248,89137
247,694	146,31084
247,957	353,44359
248,22	321,88076
248,483	173,92878
248,746	262,70021
249,009	-76,60883
249,273	288,34515
249,536	221,27364
249,799	-15,45322
250,062	298,20858
250,324	377,11567
250,587	337,66219
250,85	75,29287
251,113	118,69281
251,376	402,76037
251,639	130,52912
251,902	434,32302
252,165	661,17776
252,428	102,91104
252,691	509,28404
252,953	227,19173
253,216	213,38285
253,479	284,39978
253,742	-39,12629
254,005	65,42922
254,267	177,87419
254,53	422,48703
254,793	485,61217
255,055	280,45441
255,318	396,84237
255,581	373,17033
255,843	191,68313
256,106	124,61096
256,369	195,62854
256,631	239,0279
256,894	116,72009
257,157	385,00635
257,419	-125,92829
257,682	331,74415
257,944	471,80357
258,207	225,21903
258,469	154,20169
258,732	260,72752
258,994	71,34741
259,257	75,29287
259,519	148,28355
259,781	262,70021
260,044	43,72914
260,306	169,98336
260,569	124,61096
260,831	102,91104
261,093	313,99004
261,356	290,31784
261,618	282,42709
261,88	91,07469
262,143	67,40195
262,405	-39,12629
262,667	63,45649
262,929	142,36541
263,192	562,54561
263,454	-41,09905
263,716	-149,60177
263,978	312,01735
264,24	209,43745
264,502	179,8469
264,765	272,56366
265,027	505,33873
265,289	235,08251
265,551	65,42922
265,813	150,25626
266,075	168,01066
266,337	343,58022
266,599	122,63825
266,861	89,10197
267,123	434,32302
267,385	463,91294
267,647	33,86544
267,909	191,68313
268,171	487,58483
268,433	35,83818
268,695	501,39342
268,957	333,71683
269,219	69,37468
269,48	442,21367
269,742	14,13802
270,004	183,79231
270,266	116,72009
270,528	95,02014
270,789	454,04964
271,051	457,99496
271,313	448,13165
271,575	292,29052
271,836	248,89137
272,098	61,48375
272,36	422,48703
272,621	221,27364
272,883	67,40195
273,145	152,22897
273,406	102,91104
273,668	136,44726
273,93	24,00174
274,191	132,50183
274,453	298,20858
274,714	225,21903
274,976	168,01066
275,237	264,6729
275,499	75,29287
275,76	75,29287
276,022	227,19173
276,283	242,97329
276,545	258,75483
276,806	37,81092
277,068	440,24101
277,329	406,70571
277,59	201,54664
277,852	79,23833
278,113	280,45441
278,374	319,90808
278,636	381,06101
278,897	29,91996
279,158	252,83676
279,42	14,13802
279,681	412,62371
279,942	361,33429
280,203	264,6729
280,464	177,87419
280,726	98,96559
280,987	73,32014
281,248	229,16443
281,509	306,09931
281,77	278,48172
282,031	104,88376
282,292	302,15394
282,554	394,8697
282,815	173,92878
283,076	436,29568
283,337	341,60754
283,598	-33,20802
283,859	386,97902
284,12	205,49204
284,381	246,91868
284,642	223,24634
284,903	193,65583
285,164	-137,76502
285,424	201,54664
285,685	211,41015
285,946	57,53829
286,207	242,97329
286,468	175,90149
286,729	-9,53496
286,99	596,08059
287,25	49,64735
287,511	181,81961
287,772	112,77465
288,033	169,98336
288,294	120,66553
288,554	33,86544
288,815	142,36541
289,076	302,15394
289,336	85,15651
289,597	286,37247
289,858	625,67024
290,118	122,63825
290,379	120,66553
290,639	233,10982
290,9	69,37468
291,161	53,59282
291,421	286,37247
291,682	290,31784
291,942	175,90149
292,203	154,20169
292,463	43,72914
292,724	33,86544
292,984	95,02014
293,245	495,47545
293,505	116,72009
293,766	156,1744
294,026	1817,12787
294,286	521,11996
294,547	477,72155
294,807	244,94599
295,067	359,36162
295,328	199,57394
295,588	142,36541
295,848	333,71683
296,109	197,60124
296,369	235,08251
296,629	302,15394
296,889	454,04964
297,15	211,41015
297,41	426,43236
297,67	454,04964
297,93	187,73772
298,19	10,19253
298,45	363,30697
298,711	209,43745
298,971	491,53014
299,231	438,26834
299,491	424,4597
299,751	406,70571
300,011	298,20858
300,271	144,33812
300,531	420,51437
300,791	209,43745
301,051	-64,77222
301,311	292,29052
301,571	156,1744
301,831	270,59097
302,091	337,66219
302,351	-15,45322
302,61	817,01572
302,87	-165,38414
303,13	294,26321
303,39	-110,14602
303,65	331,74415
303,91	57,53829
304,169	83,18379
304,429	175,90149
304,689	134,47455
304,949	738,11054
305,209	396,84237
305,468	345,55289
305,728	10,19253
305,988	91,07469
306,247	195,62854
306,507	341,60754
306,767	635,53344
307,026	96,99287
307,286	333,71683
307,545	98,96559
307,805	156,1744
308,065	527,03791
308,324	-96,33657
308,584	77,2656
308,843	49,64735
309,103	91,07469
309,362	150,25626
309,622	221,27364
309,881	162,09253
310,14	381,06101
310,4	523,09261
310,659	457,99496
310,919	221,27364
311,178	195,62854
311,437	377,11567
311,697	85,15651
311,956	213,38285
312,215	158,14711
312,475	8,21978
312,734	272,56366
312,993	55,56555
313,252	308,07199
313,512	201,54664
313,771	248,89137
314,03	499,42076
314,289	363,30697
314,548	288,34515
314,808	404,73304
315,067	400,78771
315,326	-37,15353
315,585	292,29052
315,844	341,60754
316,103	546,76442
316,362	67,40195
316,621	333,71683
316,88	390,92436
317,139	171,95607
317,398	-9,53496
317,657	132,50183
317,916	108,82921
318,175	-9,53496
318,434	185,76502
318,693	315,96272
318,952	158,14711
319,211	173,92878
319,47	169,98336
319,729	160,11982
319,987	91,07469
320,246	-118,03715
320,505	607,91646
320,764	-17,42597
321,023	124,61096
321,281	396,84237
321,54	406,70571
321,799	158,14711
322,058	-50,96286
322,316	308,07199
322,575	148,28355
322,834	89,10197
323,092	75,29287
323,351	365,27964
323,609	315,96272
323,868	213,38285
324,127	112,77465
324,385	29,91996
324,644	171,95607
324,902	406,70571
325,161	493,5028
325,419	231,13712
325,678	-66,74498
325,936	359,36162
326,195	199,57394
326,453	491,53014
326,712	187,73772
326,97	215,35554
327,228	112,77465
327,487	290,31784
327,745	140,39269
328,004	596,08059
328,262	313,99004
328,52	353,44359
328,779	75,29287
329,037	209,43745
329,295	-5,58946
329,553	185,76502
329,812	205,49204
330,07	124,61096
330,328	-127,90107
330,586	219,30094
330,844	175,90149
331,103	20,05625
331,361	308,07199
331,619	110,80193
331,877	150,25626
332,135	85,15651
332,393	341,60754
332,651	481,66686
332,909	229,16443
333,167	63,45649
333,425	122,63825
333,683	140,39269
333,941	371,19766
334,199	292,29052
334,457	276,50903
334,715	223,24634
334,973	288,34515
335,231	205,49204
335,489	75,29287
335,747	146,31084
336,005	333,71683
336,262	-88,44547
336,52	312,01735
336,778	144,33812
337,036	432,35036
337,294	349,49824
337,551	217,32824
337,809	242,97329
338,067	168,01066
338,325	173,92878
338,582	69,37468
338,84	144,33812
339,098	335,68951
339,355	132,50183
339,613	434,32302
339,871	304,12663
340,128	219,30094
340,386	207,46475
340,643	603,97117
340,901	442,21367
341,159	353,44359
341,416	355,41627
341,674	175,90149
341,931	381,06101
342,189	173,92878
342,446	24,00174
342,703	237,05521
342,961	534,92852
343,218	235,08251
343,476	110,80193
343,733	-102,2549
343,99	91,07469
344,248	489,55749
344,505	386,97902
344,762	603,97117
345,02	166,03795
345,277	254,80945
345,534	339,63486
345,792	158,14711
346,049	81,21106
346,306	47,67461
346,563	37,81092
346,82	185,76502
347,078	304,12663
347,335	215,35554
347,592	548,73707
347,849	450,10432
348,106	215,35554
348,363	65,42922
348,62	164,06524
348,877	321,88076
349,135	284,39978
349,392	321,88076
349,649	254,80945
349,906	110,80193
350,163	347,52557
350,42	126,58368
350,676	347,52557
350,933	128,5564
351,19	296,23589
351,447	126,58368
351,704	71,34741
351,961	386,97902
352,218	527,03791
352,475	440,24101
352,732	146,31084
352,988	154,20169
353,245	363,30697
353,502	-19,39872
353,759	308,07199
354,015	290,31784
354,272	329,77147
354,529	51,62008
354,786	96,99287
355,042	655,25984
355,299	209,43745
355,556	434,32302
355,812	463,91294
356,069	65,42922
356,325	268,61828
356,582	262,70021
356,839	162,09253
357,095	355,41627
357,352	617,77967
357,608	177,87419
357,865	29,91996
358,121	345,55289
358,378	390,92436
358,634	452,07698
358,891	187,73772
359,147	300,18126
359,404	209,43745
359,66	345,55289
359,916	262,70021
360,173	461,94028
360,429	288,34515
360,685	219,30094
360,942	418,5417
361,198	317,9354
361,454	416,56904
361,711	298,20858
361,967	315,96272
362,223	272,56366
362,479	487,58483
362,735	426,43236
362,992	134,47455
363,248	260,72752
363,504	266,64559
363,76	454,04964
364,016	173,92878
364,272	351,47092
364,528	79,23833
364,785	91,07469
365,041	456,0223
365,297	284,39978
365,553	207,46475
365,809	442,21367
366,065	302,15394
366,321	193,65583
366,577	414,59637
366,833	148,28355
367,089	244,94599
367,344	440,24101
367,6	239,0279
367,856	404,73304
368,112	268,61828
368,368	134,47455
368,624	106,85648
368,88	148,28355
369,135	274,53634
369,391	296,23589
369,647	221,27364
369,903	554,65501
370,158	241,0006
370,414	454,04964
370,67	73,32014
370,926	197,60124
371,181	266,64559
371,437	479,6942
371,693	231,13712
371,948	471,80357
372,204	398,81504
372,459	146,31084
372,715	296,23589
372,971	396,84237
373,226	146,31084
373,482	270,59097
373,737	621,72495
373,993	262,70021
374,248	211,41015
374,504	242,97329
374,759	337,66219
375,015	465,8856
375,27	345,55289
375,525	343,58022
375,781	473,77623
376,036	438,26834
376,291	331,74415
376,547	201,54664
376,802	278,48172
377,057	367,25231
377,313	207,46475
377,568	402,76037
377,823	191,68313
378,079	345,55289
378,334	310,04467
378,589	392,89703
378,844	268,61828
379,099	605,94381
379,354	-58,85392
379,61	148,28355
379,865	532,95587
380,12	181,81961
380,375	209,43745
380,63	495,47545
380,885	457,99496
381,14	373,17033
381,395	150,25626
381,65	175,90149
381,905	-3,61671
382,16	596,08059
382,415	321,88076
382,67	138,41998
382,925	53,59282
383,18	246,91868
383,435	479,6942
383,69	288,34515
383,945	381,06101
384,2	296,23589
384,454	203,51934
384,709	280,45441
384,964	341,60754
385,219	353,44359
385,474	325,82612
385,728	312,01735
385,983	586,21737
386,238	420,51437
386,493	323,85344
386,747	329,77147
387,002	369,22498
387,257	231,13712
387,511	527,03791
387,766	201,54664
388,02	390,92436
388,275	529,01056
388,53	215,35554
388,784	414,59637
389,039	191,68313
389,293	467,85825
389,548	465,8856
389,802	246,91868
390,057	144,33812
390,311	700,6305
390,566	306,09931
390,82	55,56555
391,075	534,92852
391,329	187,73772
391,583	327,7988
391,838	8,21978
392,092	288,34515
392,346	280,45441
392,601	319,90808
392,855	546,76442
393,109	355,41627
393,364	294,26321
393,618	242,97329
393,872	77,2656
394,126	424,4597
394,381	394,8697
394,635	704,57577
394,889	394,8697
395,143	225,21903
395,397	315,96272
395,651	749,94633
395,905	179,8469
396,16	690,76732
396,414	578,32678
396,668	355,41627
396,922	394,8697
397,176	225,21903
397,43	495,47545
397,684	286,37247
397,938	276,50903
398,192	493,5028
398,446	487,58483
398,7	248,89137
398,954	321,88076
399,207	485,61217
399,461	669,06831
399,715	430,37769
399,969	235,08251
400,223	288,34515
400,477	653,2872
400,731	359,36162
400,984	428,40503
401,238	465,8856
401,492	404,73304
401,746	517,17465
401,999	436,29568
402,253	558,60031
402,507	390,92436
402,76	313,99004
403,014	408,67837
403,268	294,26321
403,521	588,19001
403,775	357,38894
404,029	469,83091
404,282	485,61217
404,536	665,12304
404,789	673,01359
405,043	554,65501
405,296	901,83858
405,55	333,71683
405,803	601,99852
406,057	649,34192
406,31	751,91896
406,564	700,6305
406,817	558,60031
407,07	724,30211
407,324	495,47545
407,577	759,80948
407,83	746,00107
408,084	623,6976
408,337	888,03022
408,59	607,91646
408,844	661,17776
409,097	609,8891
409,35	895,92071
409,603	479,6942
409,857	742,0558
410,11	891,97547
410,363	897,89333
410,616	921,5648
410,869	663,1504
411,123	1057,67545
411,376	757,83685
411,629	915,64693
411,882	797,28944
412,135	627,64288
412,388	927,48266
412,641	1116,85388
412,894	931,4279
413,147	1519,26581
413,4	1209,56664
413,653	874,22186
413,906	929,45528
414,159	974,82553
414,412	976,79815
414,665	1055,70284
414,918	1235,21057
415,17	1223,37491
415,423	1241,1284
415,676	1085,29206
415,929	1010,33266
416,182	1529,12881
416,435	1467,97814
416,687	1544,90962
416,94	1110,93604
417,193	1538,99182
417,446	1625,78621
417,698	1677,07374
417,951	1558,71783
418,204	1811,2101
418,456	1653,40258
418,709	1759,92272
418,962	1797,40197
419,214	2018,33146
419,467	1967,0444
419,719	2026,22177
419,972	1965,07182
420,225	2170,21945
420,477	2422,70584
420,73	2136,68583
420,982	2489,77181
421,235	2391,14527
421,487	2178,1097
421,74	2347,74936
421,992	2773,81143
422,244	2460,18393
422,497	2525,27718
422,749	2864,54447
423,002	2767,89402
423,254	2732,3895
423,506	3089,39982
423,759	3326,08079
424,011	3306,35778
424,263	3381,30483
424,515	3245,21594
424,768	3253,10525
425,02	3568,66717
425,272	3385,24938
425,524	3848,70838
425,776	3986,74865
426,029	4258,8668
426,281	4219,43101
426,533	4036,04729
426,785	4126,75468
427,037	4258,8668
427,289	4347,59517
427,541	4469,83805
427,793	4668,96203
428,045	4446,17861
428,297	4848,35511
428,549	4923,2618
428,801	5067,15326
429,053	5557,87133
429,305	5280,01268
429,557	5737,17171
429,809	5609,10224
430,061	5646,53909
430,313	5784,45602
430,565	6064,188
430,817	6044,4905
431,069	5983,42634
431,32	6278,87081
431,572	6654,96483
431,824	6570,30528
432,076	6528,95758
432,328	7048,64209
432,579	7019,12151
432,831	7274,93724
433,083	7259,19668
433,334	7333,96202
433,586	7534,61837
433,838	7837,48541
434,089	8220,83181
434,341	8307,30566
434,593	8254,24327
434,844	8421,27954
435,096	8505,76671
435,347	8611,85379
435,599	8729,71098
435,851	8969,29652
436,102	8904,49828
436,354	9405,05986
436,605	9446,26673
436,856	10097,39467
437,108	10260,07633
437,359	10463,86029
437,611	10262,0361
437,862	10781,16228
438,114	10749,83096
438,365	11205,93634
438,616	11722,3127
438,868	11540,45788
439,119	12040,91404
439,37	12263,63804
439,621	12921,55124
439,873	13081,52615
440,124	13407,19511
440,375	13528,05671
440,626	13678,12493
440,878	13668,38138
441,129	14387,03265
441,38	14054,1051
441,631	14951,23682
441,882	15866,52576
442,133	15530,48438
442,385	15680,07264
442,636	15882,06121
442,887	16869,8057
443,138	16580,80098
443,389	16437,22677
443,64	17608,32136
443,891	17368,03781
444,142	17916,32932
444,393	18464,29155
444,644	18559,13758
444,895	19197,68237
445,146	19615,45702
445,396	18458,48437
445,647	18832,01457
445,898	19650,26577
446,149	19899,7044
446,4	19791,42604
446,651	19851,36679
446,902	19290,53274
447,152	20466,11837
447,403	20589,81766
447,654	20543,43127
447,905	19812,69561
448,155	20607,2123
448,406	20185,83367
448,657	20877,77876
448,907	20193,56623
449,158	20705,77937
449,409	18522,36158
449,659	18942,3074
449,91	18553,33093
450,16	17912,45566
450,411	18754,60962
450,662	18299,74175
450,912	17100,54337
451,163	16706,89049
451,413	16344,08243
451,664	16920,2248
451,914	16239,28064
452,165	15221,48716
452,415	15161,22535
452,665	14733,39761
452,916	14914,28724
453,166	13758,01603
453,417	12966,42662
453,667	13452,03372
453,917	12620,99343
454,168	12332,00141
454,418	11536,54642
454,668	11839,60908
454,918	10988,69224
455,169	10900,59841
455,419	10610,77929
455,669	10179,72062
455,919	10156,19999
456,17	9505,12942
456,42	9830,74429
456,67	9053,72193
456,92	8947,69775
457,17	8873,07889
457,42	8539,16608
457,67	9169,54532
457,92	8462,54187
458,17	8185,45346
458,421	8305,34045
458,671	7925,96558
458,921	8126,48612
459,171	7784,39291
459,421	7760,7952
459,67	7512,98107
459,92	7658,53109
460,17	7373,30983
460,42	7261,16426
460,67	7426,42673
460,92	7050,6101
461,17	7166,71567
461,42	6704,1825
461,67	7208,03807
461,919	6440,3503
462,169	6912,84026
462,419	6507,29866
462,669	6861,66389
462,918	6574,24307
463,168	6843,9484
463,418	6611,65145
463,668	6026,76249
463,917	6294,62587
464,167	6339,92052
464,417	6022,8229
464,666	5914,47954
464,916	5884,92983
465,165	6026,76249
465,415	5672,15324
465,664	5563,78267
465,914	5585,45742
466,164	5313,51591
466,413	5672,15324
466,663	5404,16829
466,912	6584,08751
467,161	5214,97508
467,411	4980,42549
467,66	4785,2736
467,91	4702,47619
468,159	4461,95159
468,408	4607,84664
468,658	4542,78648
468,907	4483,63927
469,157	4280,55624
469,406	4203,65654
469,655	4485,61087
469,904	4383,08566
470,154	4116,89532
470,403	3872,37283
470,652	3862,51266
470,901	3864,4847
471,15	3702,77402
471,4	3724,46733
471,649	3791,5186
471,898	3615,99951
472,147	3464,13967
472,396	3466,11191
472,645	3424,69469
472,894	3308,33008
473,143	3292,55162
473,392	3361,58203
473,641	3462,16743
473,89	3460,19519
474,139	3414,83339
474,388	3564,72278
474,637	3673,19202
474,886	3330,02539
475,135	3138,70917
475,384	3156,46044
475,633	3464,13967
475,882	3339,88686
476,131	3061,78641
476,38	3235,35429
476,628	3333,96998
476,877	3381,30483
477,126	3545,00079
477,375	3416,80566
477,624	3716,57887
477,872	3596,27777
478,121	3063,7588
478,37	3189,99046
478,618	3385,24938
478,867	3472,02863
479,116	3507,52875
479,364	3343,83144
479,613	3320,1639
479,862	3227,46495
480,11	3535,13976
480,359	3454,27846
480,607	3266,91151
480,856	3404,97208
481,104	3677,1363
481,353	3767,85359
481,601	3685,02485
481,85	3495,69541
482,098	3414,83339
482,347	3412,86113
482,595	3710,66251
482,844	4043,935
483,092	3546,97299
483,34	3570,63936
483,589	3797,43482
483,837	3773,76985
484,085	3872,37283
484,334	4026,18762
484,582	3746,16053
484,83	3840,82019
485,078	3856,59655
485,327	3578,52812
485,575	3848,70838
485,823	3890,12107
486,071	4055,76652
486,319	3870,4008
486,568	4582,2171
486,816	4091,26082
487,064	4225,34642
487,312	4221,40282
487,56	4381,11398
487,808	4146,47331
488,056	4751,76076
488,304	4349,56688
488,552	4915,37702
488,8	4700,50478
489,048	4661,07627
489,296	5086,86355
489,544	4901,57858
489,792	5301,69132
490,04	4903,54979
490,288	5096,71861
490,536	5258,33376
490,784	5248,47961
491,031	5396,28568
491,279	5465,25721
491,527	5951,90825
491,775	5886,89983
492,023	6095,70337
492,27	5904,62971
492,518	6231,60439
492,766	6276,90141
493,014	6702,21384
493,261	6530,92655
493,509	7107,68065
493,757	6971,88677
494,004	6857,72714
494,252	7345,76654
494,499	7463,80347
494,747	7819,78827
494,995	7511,01402
495,242	7678,19819
495,49	7949,55873
495,737	8350,53907
495,985	8061,61713
496,232	8456,64738
496,48	8749,35205
496,727	8704,17682
496,975	9085,13351
497,222	9073,35433
497,469	9762,10365
497,717	9605,1844
497,964	9928,79007
498,212	10052,30699
498,459	10179,72062
498,706	10060,14855
498,954	10079,75204
499,201	10881,02029
499,448	10910,38723
499,695	10881,02029
499,943	11481,78328
500,19	11237,24443
500,437	11603,0378
500,684	11714,49213
500,931	12083,90238
501,179	12414,02703
501,426	12581,94871
501,673	12646,3711
501,92	12839,5961
502,167	13366,25255
502,414	13773,60329
502,661	13915,81843
502,908	13728,78881
503,155	14020,99708
503,402	14544,67214
503,649	14653,63402
503,896	14577,75187
504,143	15005,68492
504,39	15116,51134
504,637	15512,99784
504,884	15481,90953
505,131	15604,31134
505,378	16365,42907
505,624	16151,93403
505,871	16858,17005
506,118	16547,82019
506,365	17160,64042
506,612	16780,59455
506,858	17542,44395
507,105	17565,69538
507,352	18158,40062
507,599	18073,19866
507,845	18266,82852
508,092	18084,81756
508,339	18909,41417
508,585	18694,61704
508,832	19193,81346
509,079	18876,51999
509,325	19652,19957
509,572	19572,91183
509,818	19837,83199
510,065	19816,56277
510,311	20558,89351
510,558	20574,35564
510,804	20891,30631
511,051	20848,79093
511,297	21252,66138
511,544	21538,62674
511,79	21395,64658
512,037	20985,99721
512,283	21780,13804
512,529	22042,89295
512,776	22031,30096
513,022	22156,88035
513,268	22666,9244
513,515	23076,52104
513,761	22632,1483
514,007	22827,28248
514,254	23376,01064
514,5	23117,09584
514,746	23623,34973
514,992	23876,50771
515,238	23665,86315
515,485	24087,17048
515,731	24777,2963
515,977	24025,3225
516,223	24471,82985
516,469	24924,2503
516,715	25069,28496
516,961	24837,23636
517,207	25092,49187
517,453	25442,57788
517,699	25757,93219
517,945	24841,10354
518,191	25641,84114
518,437	25494,80879
518,683	25765,672
518,929	25777,28183
519,175	25821,78725
519,421	26443,12063
519,667	26443,12063
519,913	26334,69898
520,159	26615,45853
520,404	26284,36438
520,65	26809,13437
520,896	26421,82257
521,142	27153,98089
521,388	26642,57071
521,633	26911,79927
521,879	27498,96728
522,125	27553,24809
522,37	27431,12143
522,616	27310,95123
522,862	27613,349
523,107	27770,4086
523,353	27626,92081
523,599	27993,44958
523,844	27692,84435
524,09	27704,47849
524,335	27999,26893
524,581	28288,35414
524,826	27518,35286
525,072	28329,10695
525,317	28478,5539
525,563	28202,97478
525,808	28643,56481
526,054	28257,30593
526,299	28329,10695
526,545	28365,98054
526,79	28278,65143
527,035	28765,89252
527,281	28216,55719
527,526	28410,61956
527,771	28484,37715
528,017	28901,8381
528,262	28389,27011
528,507	28742,59031
528,752	29216,56184
528,998	28810,55733
529,243	28927,08817
529,488	29603,37732
529,733	29022,27013
529,978	29391,4743
530,224	29113,58003
530,469	28923,20348
530,714	28426,14683
530,959	29045,58209
531,204	29576,15641
531,449	29024,21277
531,694	28925,14582
531,939	29465,34065
532,184	28913,49186
532,429	29107,75136
532,674	29162,15432
532,919	29564,49067
533,164	28921,26114
533,409	28998,959
533,654	28610,55948
533,899	29581,98936
534,144	28822,2095
534,388	29601,43293
534,633	29364,26255
534,878	28998,959
535,123	29605,32172
535,368	29430,35025
535,612	28639,68175
535,857	29368,14987
536,102	29247,6539
536,347	29146,61016
536,591	28950,39677
536,836	29541,15984
537,081	29164,09737
537,325	29041,69671
537,57	29150,49616
537,815	29024,21277
538,059	29167,98348
538,304	28975,64869
538,548	29253,48383
538,793	29175,75577
539,037	28913,49186
539,282	29354,54435
539,526	28800,84734
539,771	28682,39663
540,015	29035,86868
540,26	28971,76372
540,504	29296,23826
540,749	29249,59721
540,993	28727,05595
541,237	29280,69087
541,482	28938,74237
541,726	28944,56955
541,97	29197,13006
542,215	28796,96338
542,459	28824,15155
542,703	28692,10493
542,948	28785,31164
543,192	28942,62715
543,436	28676,57172
543,68	28589,20394
543,924	28845,51445
544,169	28655,21413
544,413	28934,85761
544,657	29533,38309
544,901	28327,16629
545,145	28839,68814
545,389	28864,93587
545,633	28655,21413
545,877	28756,18317
546,121	28379,56603
546,365	28162,22909
546,609	28298,05698
546,853	28484,37715
547,097	28717,34715
547,341	28346,57315
547,585	28381,50684
547,829	28340,75104
548,073	28748,41579
548,317	28697,92998
548,561	28591,14532
548,805	28049,70514
549,048	28113,72528
549,292	27929,4398
549,536	28956,22405
549,78	28014,7874
550,023	28247,60364
550,267	27946,89647
550,511	27977,93156
550,755	27840,22309
550,998	27543,55481
551,242	27225,67975
551,486	28270,88936
551,729	28154,46826
551,973	27615,28782
552,216	27045,47517
552,46	27960,47416
552,704	27989,57005
552,947	27644,37062
553,191	27060,97515
553,434	27322,57984
553,678	27345,83754
553,921	27578,45114
554,165	27607,53259
554,408	27605,59379
554,652	27322,57984
554,895	27225,67975
555,138	27024,16315
555,382	27165,60732
555,625	27080,35052
555,868	27454,38223
556,112	27332,27047
556,355	27281,88043
556,598	26568,98233
556,842	27378,78708
557,085	27043,53769
557,328	26915,67365
557,571	26778,1435
557,814	27343,89938
558,058	26958,29293
558,301	27640,49285
558,544	26383,10003
558,787	26739,40638
559,03	26890,4905
559,273	26791,70187
559,516	26702,60763
559,759	27146,23003
560,003	26553,49076
560,246	26845,93742
560,489	26561,23651
560,732	27283,81845
560,975	26559,30007
561,217	26689,05057
561,46	27239,24509
561,703	26770,39594
561,946	27121,0402
562,189	27095,85112
562,432	27159,79409
562,675	27287,69451
562,918	26828,50421
563,161	27834,40497
563,403	27425,30634
563,646	27586,20609
563,889	27615,28782
564,132	27322,57984
564,374	27566,81886
564,617	27380,72533
564,86	27469,88979
565,102	27894,52766
565,345	27117,16491
565,588	27766,5302
565,83	27246,99681
566,073	27392,35493
566,316	27266,37642
566,558	27309,01315
566,801	26962,16751
567,043	27233,43134
567,286	27396,23149
567,528	27417,55295
567,771	26857,55975
568,013	27394,29321
568,256	27231,49344
568,498	26630,95111
568,741	26935,0458
568,983	26861,43389
569,225	26067,56677
569,468	26869,18223
569,71	25999,82671
569,952	26373,41963
570,195	26204,99568
570,437	26721,97521
570,679	25887,5811
570,922	25885,64593
571,164	26185,6384
571,406	25697,95037
571,648	25326,51692
571,891	26104,34175
572,133	25318,7799
572,375	25258,81952
572,617	25224,00507
572,859	25858,55392
573,101	25365,20273
573,343	25177,5872
573,585	24889,44412
573,827	25394,21786
574,069	24670,95665
574,312	24651,62292
574,554	25371,00571
574,795	24529,82556
575,037	24643,88949
575,279	24870,1077
575,521	24609,08951
575,763	24775,36279
576,005	23959,6109
576,247	24864,30682
576,489	23994,39916
576,731	24498,89428
576,973	24009,86077
577,214	24413,83603
577,456	23690,98502
577,698	23839,78861
577,94	22981,84778
578,181	23920,95789
578,423	23221,43267
578,665	23660,06583
578,907	23893,90116
579,148	23519,00121
579,39	23486,15148
579,632	23484,21915
579,873	23366,34933
580,115	23553,78365
580,356	22848,535
580,598	23325,77211
580,839	23345,09454
581,081	23080,38529
581,323	23051,40348
581,564	23041,74291
581,806	22825,35044
582,047	22920,02121
582,288	22373,26199
582,53	22367,46605
582,771	22636,01231
583,013	22531,68454
583,254	22181,99612
583,495	22815,69023
583,737	22701,70061
583,978	22641,80832
584,219	22404,17364
584,461	22682,38048
584,702	22064,1449
584,943	22153,01638
585,184	21818,77898
585,426	22398,37771
585,667	21613,9794
585,908	21880,60406
586,149	22021,64097
586,39	21797,52649
586,631	21561,8123
586,873	22100,85274
587,114	21465,20508
587,355	21758,88544
587,596	21407,23974
587,837	21926,97258
588,078	21022,71323
588,319	21469,0694
588,56	21171,50509
588,801	21273,91629
589,042	20653,59733
589,283	21059,42878
589,524	20601,4141
589,765	20634,27035
590,005	20613,01048
590,246	20873,91374
590,487	20655,53002
590,728	20601,4141
590,969	19990,57513
591,21	20444,85681
591,45	19716,01334
591,691	20253,49243
591,932	19944,1737
592,173	19959,64099
592,413	19656,06715
592,654	19435,59797
592,895	19491,68558
593,135	19994,44185
593,376	19429,79567
593,617	19965,44119
593,857	19352,42921
594,098	19381,44217
594,338	19737,28398
594,579	19203,48572
594,819	19044,8509
595,06	19567,11012
595,3	19015,83007
595,541	18942,3074
595,781	19089,34814
596,022	19149,32006
596,262	19514,89357
596,503	18721,71087
596,743	18793,31277
596,983	19462,67504
597,224	19271,18948
597,464	19528,43139
597,704	18992,61288
597,945	19561,30838
598,185	18801,05324
598,425	19251,84592
598,666	19046,7856
598,906	18617,20232
599,146	18804,92346
599,386	18806,85856
599,626	18607,52509
599,867	18946,17713
600,107	18561,07312
600,347	18619,13776
600,587	18446,8699
600,827	18485,58427
601,067	18381,05208
601,307	18802,98835
601,547	18495,26264
601,787	18932,63302
602,027	18503,00527
602,267	19151,25459
602,507	18549,45981
602,747	19021,63429
602,987	18497,1983
603,227	18924,89345
603,467	18742,99841
603,707	18824,27432
603,947	18452,67715
604,187	18419,76896
604,426	18609,46054
604,666	18495,26264
604,906	18690,74644
605,146	18543,65311
605,386	18470,0987
605,625	18615,26688
605,865	18514,6191
606,105	18876,51999
606,344	18760,41518
606,584	19300,20426
606,824	20079,50754
607,063	21702,85552
607,303	23070,72467
607,543	24701,89109
607,782	26115,95517
608,022	27398,16979
608,261	28007,02812
608,501	27735,50373
608,74	27258,62452
608,98	26853,68562
609,219	25307,17445
609,459	24790,83095
609,698	23777,94713
609,938	22914,225
610,177	22608,96429
610,416	21785,9342
610,656	21695,12721
610,895	21726,04037
611,134	22498,84076
611,374	24197,34164
611,613	26613,52198
611,852	29615,04379
612,092	32914,53133
612,331	36038,68357
612,57	38108,95414
612,809	40157,61179
613,049	39690,63857
613,288	39646,95038
613,527	38089,17177
613,766	36996,62352
614,005	34815,61593
614,244	33178,67398
614,483	30307,65428
614,722	28897,95356
614,961	26665,81035
615,2	25295,5691
615,439	23422,3853
615,678	22313,37069
615,917	21018,84841
616,156	20396,53426
616,395	19356,29765
616,634	19294,40136
616,873	18293,93361
617,112	18164,20957
617,351	17666,44432
617,59	17583,13354
617,829	17172,27158
618,068	17461,05892
618,306	17369,97586
618,545	17596,69631
618,784	17234,30162
619,023	17389,35607
619,261	17036,5641
619,5	17333,15221
619,739	16584,68097
619,977	16846,53423
620,216	15981,09148
620,455	16417,82268
620,693	15602,36863
620,932	15814,09099
621,171	16074,2835
621,409	15396,40912
621,648	15163,16937
621,886	15602,36863
622,125	15110,67884
622,363	15423,615
622,602	15200,10458
622,84	15192,32892
623,079	14995,96238
623,317	15186,49711
623,556	15357,54163
623,794	15355,59819
624,032	15849,04795
624,271	15427,50147
624,509	15406,12564
624,747	15316,72827
624,986	15833,51174
625,224	15411,95548
625,462	15647,04953
625,7	15559,62758
625,939	15658,70493
626,177	15474,13723
626,415	15763,59444
626,653	15816,03309
626,891	15654,81982
627,13	15623,73813
627,368	15953,90812
627,606	16600,20075
627,844	17412,61172
628,082	18065,45265
628,32	19176,40319
628,558	21787,86625
628,796	25073,15275
629,034	29581,98936
629,272	36036,71461
629,51	42415,30141
629,748	48933,67067
629,986	53527,36349
630,224	55902,58251
630,462	58000,31216
630,7	57570,92372
630,938	56545,13179
631,175	52518,83555
631,413	48841,11283
631,651	45271,96911
631,889	40370,42041
632,127	36959,13442
632,364	33497,78846
632,602	30909,48656
632,84	28245,6632
633,078	27735,50373
633,315	28327,16629
633,553	30276,50849
633,791	33172,80263
634,028	35918,59237
634,266	39706,52638
634,503	40463,93462
634,741	41151,08518
634,979	39265,87498
635,216	38029,8302
635,454	35312,71139
635,691	32228,40337
635,929	29129,12341
636,166	26979,60334
636,404	23323,83988
636,641	21440,08686
636,878	18874,585
637,116	17612,19635
637,353	16215,98926
637,591	14367,56819
637,828	12907,89284
638,065	12134,70277
638,302	11419,19075
638,54	10506,96007
638,777	9720,91589
639,014	10020,93982
639,252	9357,96329
639,489	9053,72193
639,726	8450,75285
639,963	8415,38475
640,2	8438,96366
640,437	8177,5914
640,675	7778,49354
640,912	8442,89341
641,149	7756,86219
641,386	7807,98998
641,623	7595,59344
641,86	7465,77063
642,097	7271,00212
642,334	7251,3263
642,571	7158,84454
642,808	7233,61771
643,045	7271,00212
643,282	7215,9088
643,519	6843,9484
643,756	6893,15734
643,993	7213,94112
644,229	7149,00554
644,466	7093,9053
644,703	7129,32724
644,94	7318,22244
645,177	7294,61257
645,413	7501,17869
645,65	8719,89025
645,887	8875,04264
646,124	10448,18691
646,36	11419,19075
646,597	12663,93963
646,834	12738,11207
647,07	13500,76752
647,307	13292,15884
647,544	13194,65301
647,78	12822,03281
648,017	12261,68469
648,253	11591,30456
648,49	10935,83745
648,726	10134,63866
648,963	9432,53138
649,199	8904,49828
649,436	8216,90096
649,672	8187,41897
649,909	7693,93155
650,145	7062,41807
650,382	6912,84026
650,618	6895,12565
650,854	6753,39794
651,091	6475,79403
651,327	6710,08847
651,563	6615,5891
651,8	6363,55183
652,036	6347,79767
652,272	6243,42117
652,508	6282,80959
652,745	5794,30671
652,981	5963,72762
653,217	5735,2015
653,453	5374,60829
653,689	5646,53909
653,925	5788,3963
654,161	5502,69763
654,398	5443,58077
654,634	5189,35352
654,87	5029,70313
655,106	5057,29804
655,342	5149,93501
655,578	4852,29764
655,814	4674,87633
656,05	4937,06009
656,286	4950,85828
656,522	5179,49898
656,757	4682,76204
656,993	4921,29061
657,229	4607,84664
657,465	4507,29833
657,701	4404,77405
657,937	4515,18463
658,173	4406,74571
658,408	4390,97237
658,644	4235,2054
658,88	4361,39709
659,116	4424,49059
659,351	4329,84974
659,587	4274,64095
659,823	3929,56124
660,058	4339,70833
660,294	3858,56859
660,53	4245,06434
660,765	3878,28892
661,001	3846,73633
661,236	4032,10343
661,472	3554,86179
661,707	3929,56124
661,943	3694,88551
662,178	3789,54652
662,414	3617,97168
662,649	3675,16416
662,885	3468,08415
663,12	3434,55597
663,356	3399,05527
663,591	3454,27846
663,826	3807,29518
664,062	3584,44468
664,297	3363,55431
664,532	3385,24938
664,768	3306,35778
665,003	3193,93515
665,238	3485,83427
665,474	3028,25568
665,709	3290,57931
665,944	3073,62074
666,179	3207,74157
666,414	3306,35778
666,649	3085,45505
666,885	3207,74157
667,12	2945,41433
667,355	3335,94227
667,59	3349,74831
667,825	3057,84163
668,06	2917,80033
668,295	3485,83427
668,53	3377,36027
668,765	2882,29646
669	3241,27128
669,235	3326,08079
669,47	3010,50405
669,705	3002,61442
669,94	3142,6539
670,175	3128,84733
670,409	3099,26172
670,644	2823,12299
670,879	2957,24887
671,114	2929,63491
671,349	4333,79318
671,584	2943,44191
671,818	2884,2689
672,053	2761,97661
672,288	2708,71974
672,522	2767,89402
672,757	2588,39756
672,992	2949,35918
673,226	2832,98526
673,461	2432,56851
673,696	2694,91235
673,93	2655,46256
674,165	2470,04656
674,399	2789,59116
674,634	2507,52451
674,868	2401,00795
675,103	2507,52451
675,337	2604,1776
675,572	2227,42373
675,806	2458,2114
676,041	2219,53349
676,275	2387,20019
676,51	2245,17674
676,744	2633,76511
676,978	2586,42505
677,213	2132,74069
677,447	2282,65528
677,681	2132,74069
677,916	2296,46313
678,15	2142,60353
678,384	2184,02739
678,618	2306,32588
678,853	2116,96014
679,087	2363,52971
679,321	2337,88664
679,555	2178,1097
679,789	1746,11457
680,023	2085,39901
680,257	2164,30175
680,491	1710,60787
680,726	2185,99996
680,96	2195,86277
681,194	1856,57966
681,428	2120,90528
681,662	1980,85247
681,896	2040,02981
682,13	1643,53959
682,364	1868,41518
682,597	1937,45567
682,831	1716,52565
683,065	1927,59275
683,299	1750,05975
683,533	1732,30641
683,767	1911,81208
684,001	1797,40197
684,234	1667,21076
684,468	1389,07396
684,702	2069,61843
684,936	1789,5116
685,169	1965,07182
685,403	1675,10115
685,637	1842,77154
685,87	1690,88192
686,104	1720,47084
686,338	1740,19679
686,571	1489,67677
686,805	1619,86842
687,038	1521,23841
687,272	1629,73141
687,506	1702,71749
687,739	1452,19731
687,973	1915,75724
688,206	1369,3479
688,44	1746,11457
688,673	1886,16846
688,906	1538,99182
689,14	1357,51227
689,373	1529,12881
689,607	1761,89531
689,84	1637,6218
690,073	1172,08703
690,307	1460,08773
690,54	1617,89582
690,773	1611,97802
691,006	1556,74523
691,24	1264,79971
691,473	1586,33423
691,706	1550,82743
691,939	1580,41643
692,173	1335,81359
692,406	1619,86842
692,639	1771,75828
692,872	1955,20891
693,105	1667,21076
693,338	1596,19723
693,571	2053,83783
693,804	1844,74413
694,037	1708,63527
694,27	1391,04657
694,503	1521,23841
694,736	1564,63563
694,969	1487,70417
695,202	1556,74523
695,435	1430,49867
695,668	1495,59458
695,901	1442,33429
696,134	1414,71783
696,367	1122,77172
696,599	1572,52603
696,832	1323,97795
697,065	1357,51227
697,298	1296,36145
697,53	992,5791
697,763	1166,1692
697,996	1314,11492
698,229	1097,12775
698,461	1418,66304
698,694	919,59217
698,927	1337,7862
699,159	1087,26467
699,392	1073,45637
699,624	994,55172
699,857	1339,75881
700,09	1213,51186
700,322	1235,21057
700,555	852,52299
700,787	1373,29312
701,02	982,71601
701,252	1152,36091
701,484	1055,70284
701,717	1148,41569
701,949	1227,32013
702,182	901,83858
702,414	1254,93667
702,646	986,66125
702,879	1260,85449
703,111	1276,63536
703,343	1126,71695
703,576	860,41349
703,808	1152,36091
704,04	1014,27789
704,272	939,31838
704,505	959,04458
704,737	1069,51114
704,969	994,55172
705,201	866,33136
705,433	1132,63479
705,665	1047,81237
705,897	953,12672
706,129	994,55172
706,362	868,30398
706,594	2531,19473
706,826	789,39893
707,058	911,70169
707,29	1195,75837
707,522	1069,51114
707,754	809,12521
707,985	753,89159
708,217	945,23624
708,449	708,52103
708,681	937,34576
708,913	716,41157
709,145	1043,86714
709,377	986,66125
709,608	1156,30614
709,84	1278,60797
710,072	694,71259
710,304	822,9336
710,535	915,64693
710,767	882,11235
710,999	836,74199
711,231	619,75231
711,462	708,52103
711,694	671,04095
711,925	544,79177
712,157	1108,96343
712,389	704,57577
712,62	730,22001
712,852	891,97547
713,083	907,75644
713,315	1201,6762
713,546	791,37156
713,778	720,35684
714,009	718,38421
714,241	690,76732
714,472	1055,70284
714,703	688,79468
714,935	633,5608
715,166	489,55749
715,397	763,75475
715,629	876,19448
715,86	787,4263
716,091	886,0576
716,323	746,00107
716,554	836,74199
716,785	434,32302
717,016	635,53344
717,248	546,76442
717,479	838,71461
717,71	525,06526
717,941	1069,51114
718,172	775,59053
718,403	495,47545
718,634	870,27661
718,865	688,79468
719,096	665,12304
719,327	826,87886
719,558	517,17465
719,789	452,07698
720,02	527,03791
720,251	463,91294
720,482	659,20512
720,713	633,5608
720,944	605,94381
721,175	848,57774
721,406	840,68724
721,637	542,81912
721,868	609,8891
722,098	702,60313
722,329	791,37156
722,56	357,38894
722,791	410,65104
723,021	511,25669
723,252	639,47873
723,483	404,73304
723,713	456,0223
723,944	647,36929
724,175	485,61217
724,405	367,25231
724,636	653,2872
724,867	465,8856
725,097	726,27474
725,328	775,59053
725,558	613,83438
725,789	469,83091
726,019	560,57296
726,25	789,39893
726,48	140,39269
726,711	749,94633
726,941	519,1473
727,171	674,98622
727,402	517,17465
727,632	323,85344
727,862	339,63486
728,093	793,34419
728,323	302,15394
728,553	688,79468
728,784	505,33873
729,014	584,24472
729,244	432,35036
729,474	649,34192
729,705	471,80357
729,935	390,92436
730,165	722,32947
730,395	469,83091
730,625	266,64559
730,855	438,26834
731,085	799,26207
731,315	676,95886
731,545	467,85825
731,775	465,8856
732,005	740,08317
732,235	507,31138
732,465	501,39342
732,695	795,31682
732,925	706,5484
733,155	852,52299
733,385	444,18633
733,615	609,8891
733,845	256,78214
734,075	317,9354
734,305	540,84647
734,534	507,31138
734,764	700,6305
734,994	262,70021
735,224	905,78382
735,453	720,35684
735,683	523,09261
735,913	710,49367
736,142	392,89703
736,372	521,11996
736,602	755,86422
736,831	467,85825
737,061	237,05521
737,291	521,11996
737,52	319,90808
737,75	363,30697
737,979	416,56904
738,209	525,06526
738,438	746,00107
738,668	329,77147
738,897	525,06526
739,127	221,27364
739,356	527,03791
739,585	77,2656
739,815	304,12663
740,044	613,83438
740,273	746,00107
740,503	406,70571
740,732	513,22934
740,961	171,95607
741,191	469,83091
741,42	452,07698
741,649	653,2872
741,878	304,12663
742,108	442,21367
742,337	669,06831
742,566	495,47545
742,795	284,39978
743,024	345,55289
743,253	481,66686
743,482	477,72155
743,711	323,85344
743,94	386,97902
744,169	785,45367
744,398	442,21367
744,627	594,10795
744,856	367,25231
745,085	544,79177
745,314	357,38894
745,543	189,71042
745,772	369,22498
746,001	231,13712
746,23	402,76037
746,459	239,0279
746,687	260,72752
746,916	221,27364
747,145	412,62371
747,374	442,21367
747,603	317,9354
747,831	229,16443
748,06	394,8697
748,289	400,78771
748,517	201,54664
748,746	337,66219
748,975	694,71259
749,203	205,49204
749,432	142,36541
749,66	286,37247
749,889	481,66686
750,118	166,03795
750,346	292,29052
750,575	603,97117
750,803	550,70972
751,031	552,68237
751,26	1002,44219
751,488	359,36162
751,717	483,63952
751,945	284,39978
752,174	379,08834
752,402	363,30697
752,63	665,12304
752,859	310,04467
753,087	363,30697
753,315	398,81504
753,543	272,56366
753,772	242,97329
754	227,19173
754,228	319,90808
754,456	795,31682
754,684	491,53014
754,913	126,58368
755,141	434,32302
755,369	302,15394
755,597	233,10982
755,825	227,19173
756,053	379,08834
756,281	327,7988
756,509	452,07698
756,737	254,80945
756,965	450,10432
757,193	154,20169
757,421	262,70021
757,649	160,11982
757,877	89,10197
758,105	386,97902
758,332	108,82921
758,56	337,66219
758,788	369,22498
759,016	286,37247
759,244	308,07199
759,472	126,58368
759,699	540,84647
759,927	359,36162
760,155	400,78771
760,382	79,23833
760,61	540,84647
760,838	479,6942
761,065	294,26321
761,293	173,92878
761,521	359,36162
761,748	341,60754
761,976	264,6729
762,203	69,37468
762,431	355,41627
762,658	-100,28212
762,886	195,62854
763,113	120,66553
763,341	-3,61671
763,568	91,07469
763,796	-64,77222
764,023	59,51102
764,25	258,75483
764,478	298,20858
764,705	156,1744
764,932	469,83091
765,16	187,73772
765,387	304,12663
765,614	284,39978
765,842	244,94599
766,069	491,53014
766,296	304,12663
766,523	199,57394
766,75	323,85344
766,978	98,96559
767,205	254,80945
767,432	452,07698
767,659	337,66219
767,886	126,58368
768,113	428,40503
768,34	164,06524
768,567	294,26321
768,794	375,143
769,021	-31,23526
769,248	278,48172
769,475	252,83676
769,702	286,37247
769,929	420,51437
770,156	158,14711
770,383	325,82612
770,609	138,41998
770,836	6,24704
771,063	242,97329
771,29	209,43745
771,517	436,29568
771,743	231,13712
771,97	386,97902
772,197	79,23833
772,424	25,97448
772,65	128,5564
772,877	444,18633
773,104	173,92878
773,33	126,58368
773,557	-29,2625
773,783	100,93832
774,01	132,50183
774,236	331,74415
774,463	556,62766
774,69	444,18633
774,916	205,49204
775,143	339,63486
775,369	442,21367
775,595	85,15651
775,822	235,08251
776,048	390,92436
776,275	268,61828
776,501	59,51102
776,727	177,87419
776,954	-50,96286
777,18	302,15394
777,406	-7,56221
777,633	2,30154
777,859	199,57394
778,085	191,68313
778,311	586,21737
778,537	457,99496
778,764	-33,20802
778,99	377,11567
779,216	239,0279
779,442	73,32014
779,668	43,72914
779,894	363,30697
780,12	4,27429
780,346	515,202
780,572	258,75483
780,798	400,78771
781,024	304,12663
781,25	227,19173
781,476	81,21106
781,702	363,30697
781,928	162,09253
782,154	274,53634
782,38	280,45441
782,606	250,86406
782,831	268,61828
783,057	294,26321
783,283	347,52557
783,509	436,29568
783,735	517,17465
783,96	193,65583
784,186	144,33812
784,412	319,90808
784,637	381,06101
784,863	231,13712
785,089	313,99004
785,314	408,67837
785,54	116,72009
785,766	333,71683
785,991	416,56904
786,217	142,36541
786,442	43,72914
786,668	296,23589
786,893	231,13712
787,119	343,58022
787,344	272,56366
787,57	254,80945
787,795	400,78771
788,02	298,20858
788,246	227,19173
788,471	-68,71775
788,696	69,37468
788,922	154,20169
789,147	213,38285
789,372	355,41627
789,598	479,6942
789,823	276,50903
790,048	302,15394
790,273	146,31084
790,499	422,48703
790,724	390,92436
790,949	276,50903
791,174	416,56904
791,399	164,06524
791,624	633,5608
791,849	617,77967
792,074	536,90117
792,299	450,10432
792,524	292,29052
792,749	310,04467
792,974	89,10197
793,199	327,7988
793,424	430,37769
793,649	386,97902
793,874	199,57394
794,099	128,5564
794,324	250,86406
794,549	278,48172
794,774	229,16443
794,998	317,9354
795,223	491,53014
795,448	319,90808
795,673	369,22498
795,897	304,12663
796,122	341,60754
796,347	33,86544
796,571	294,26321
796,796	485,61217
797,021	108,82921
797,245	452,07698
797,47	160,11982
797,695	144,33812
797,919	183,79231
798,144	75,29287
798,368	590,16266
798,593	310,04467
798,817	235,08251
799,042	329,77147
799,266	345,55289
799,491	386,97902
799,715	223,24634
799,939	241,0006
800,164	331,74415
800,388	106,85648
800,612	146,31084
800,837	306,09931
801,061	361,33429
801,285	248,89137
801,51	258,75483
801,734	337,66219
801,958	106,85648
802,182	118,69281
802,406	456,0223
802,631	280,45441
802,855	102,91104
803,079	408,67837
803,303	138,41998
803,527	79,23833
803,751	491,53014
803,975	87,12924
804,199	12,16527
804,423	108,82921
804,647	461,94028
804,871	317,9354
805,095	229,16443
805,319	282,42709
805,543	189,71042
805,767	242,97329
805,991	246,91868
806,215	434,32302
806,438	244,94599
806,662	292,29052
806,886	576,35414
807,11	14,13802
807,334	386,97902
807,557	31,8927
807,781	221,27364
808,005	-78,5816
808,228	63,45649
808,452	8,21978
808,676	241,0006
808,899	233,10982
809,123	177,87419
809,347	225,21903
809,57	319,90808
809,794	471,80357
810,017	542,81912
810,241	286,37247
810,464	404,73304
810,688	274,53634
810,911	422,48703
811,135	339,63486
811,358	-88,44547
811,581	175,90149
811,805	197,60124
812,028	171,95607
812,251	181,81961
812,475	-54,90839
812,698	140,39269
812,921	95,02014
813,145	244,94599
813,368	173,92878
813,591	-43,07181
813,814	114,74737
814,038	335,68951
814,261	166,03795
814,484	31,8927
814,707	160,11982
814,93	120,66553
815,153	258,75483
815,376	154,20169
815,599	339,63486
815,822	242,97329
816,045	183,79231
816,268	87,12924
816,491	377,11567
816,714	323,85344
816,937	-15,45322
817,16	-68,71775
817,383	-7,56221
817,606	292,29052
817,829	268,61828
818,052	-78,5816
818,274	400,78771
818,497	-11,50771
818,72	4,27429
818,943	35,83818
819,166	122,63825
819,388	106,85648
819,611	313,99004
819,834	152,22897
820,056	100,93832
820,279	-17,42597
820,502	412,62371
820,724	371,19766
820,947	14,13802
821,169	260,72752
821,392	158,14711
821,614	381,06101
821,837	331,74415
822,06	248,89137
822,282	-23,34423
822,504	434,32302
822,727	57,53829
822,949	355,41627
823,172	424,4597
823,394	-66,74498
823,616	-11,50771
823,839	18,08351
824,061	363,30697
824,283	126,58368
824,506	49,64735
824,728	124,61096
824,95	333,71683
825,172	268,61828
825,395	79,23833
825,617	-96,33657
825,839	173,92878
826,061	341,60754
826,283	292,29052
826,505	343,58022
826,728	252,83676
826,95	383,03368
827,172	373,17033
827,394	426,43236
827,616	-25,31699
827,838	189,71042
828,06	140,39269
828,282	242,97329
828,504	-3,61671
828,726	138,41998
828,947	51,62008
829,169	469,83091
829,391	126,58368
829,613	148,28355
829,835	286,37247
830,057	183,79231
830,278	306,09931
830,5	130,52912
830,722	189,71042
830,944	704,57577
831,165	337,66219
831,387	217,32824
831,609	-155,52015
831,83	59,51102
832,052	258,75483
832,274	465,8856
832,495	594,10795
832,717	33,86544
832,938	235,08251
833,16	189,71042
833,381	20,05625
833,603	302,15394
833,824	215,35554
834,046	63,45649
834,267	248,89137
834,489	-52,93562
834,71	-48,9901
834,931	207,46475
835,153	87,12924
835,374	156,1744
835,595	-100,28212
835,817	154,20169
836,038	357,38894
836,259	272,56366
836,481	394,8697
836,702	191,68313
836,923	-92,39102
837,144	-123,9555
837,365	369,22498
837,587	288,34515
837,808	242,97329
838,029	475,74889
838,25	313,99004
838,471	138,41998
838,692	57,53829
838,913	98,96559
839,134	566,4909
839,355	394,8697
839,576	219,30094
839,797	195,62854
840,018	333,71683
840,239	394,8697
840,46	-7,56221
840,681	75,29287
840,901	454,04964
841,122	85,15651
841,343	193,65583
841,564	47,67461
841,785	156,1744
842,005	81,21106
842,226	114,74737
842,447	37,81092
842,668	27,94722
842,888	4,27429
843,109	207,46475
843,33	483,63952
843,55	150,25626
843,771	286,37247
843,991	96,99287
844,212	246,91868
844,433	73,32014
844,653	308,07199
844,874	215,35554
845,094	140,39269
845,315	-9,53496
845,535	179,8469
845,755	27,94722
845,976	195,62854
846,196	79,23833
846,417	43,72914
846,637	189,71042
846,857	258,75483
847,078	91,07469
847,298	213,38285
847,518	258,75483
847,738	-102,2549
847,959	383,03368
848,179	290,31784
848,399	272,56366
848,619	150,25626
848,839	244,94599
849,06	-100,28212
849,28	268,61828
849,5	278,48172
849,72	-15,45322
849,94	-66,74498
850,16	93,04742
850,38	201,54664
850,6	317,9354
850,82	379,08834
851,04	29,91996
851,26	71,34741
851,48	93,04742
851,7	61,48375
851,92	0,32879
852,14	150,25626
852,359	0,32879
852,579	-161,43854
852,799	454,04964
853,019	24,00174
853,239	20,05625
853,458	390,92436
853,678	29,91996
853,898	266,64559
854,117	166,03795
854,337	254,80945
854,557	49,64735
854,776	146,31084
854,996	51,62008
855,216	98,96559
855,435	61,48375
855,655	345,55289
855,874	65,42922
856,094	231,13712
856,313	164,06524
856,533	166,03795
856,752	237,05521
856,972	-25,31699
857,191	14,13802
857,411	288,34515
857,63	-19,39872
857,849	-118,03715
858,069	134,47455
858,288	158,14711
858,507	345,55289
858,727	262,70021
858,946	59,51102
859,165	-43,07181
859,384	91,07469
859,604	-43,07181
859,823	-25,31699
860,042	1615,92322
860,261	231,13712
860,48	546,76442
860,699	274,53634
860,918	225,21903
861,137	426,43236
861,356	-92,39102
861,576	-29,2625
861,795	55,56555
862,014	148,28355
862,233	233,10982
862,451	89,10197
862,67	274,53634
862,889	20,05625
863,108	35,83818
863,327	-120,00993
863,546	223,24634
863,765	288,34515
863,984	41,7564
864,202	187,73772
864,421	31,8927
864,64	49,64735
864,859	-5,58946
865,077	235,08251
865,296	304,12663
865,515	260,72752
865,733	156,1744
865,952	215,35554
866,171	138,41998
866,389	164,06524
866,608	-204,84026
866,826	-3,61671
867,045	77,2656
867,264	57,53829
867,482	-23,34423
867,701	-94,36379
867,919	227,19173
868,137	260,72752
868,356	400,78771
868,574	-133,81944
868,793	272,56366
869,011	375,143
869,229	91,07469
869,448	47,67461
869,666	114,74737
869,884	-64,77222
870,103	235,08251
870,321	104,88376
870,539	-31,23526
870,757	164,06524
870,975	296,23589
871,194	173,92878
871,412	65,42922
871,63	292,29052
871,848	315,96272
872,066	262,70021
872,284	-169,32974
872,502	274,53634
872,72	248,89137
872,938	213,38285
873,156	69,37468
873,374	203,51934
873,592	-145,65618
873,81	-45,04457
874,028	20,05625
874,246	319,90808
874,464	418,5417
874,682	207,46475
874,9	69,37468
875,117	290,31784
875,335	361,33429
875,553	339,63486
875,771	61,48375
875,988	315,96272
876,206	83,18379
876,424	27,94722
876,642	39,78366
876,859	102,91104
877,077	91,07469
877,294	69,37468
877,512	-64,77222
877,73	422,48703
877,947	8,21978
878,165	104,88376
878,382	185,76502
878,6	67,40195
878,817	191,68313
879,035	197,60124
879,252	152,22897
879,47	345,55289
879,687	183,79231
879,904	148,28355
880,122	75,29287
880,339	37,81092
880,556	16,11076
880,774	22,029
880,991	217,32824
881,208	428,40503
881,426	189,71042
881,643	177,87419
881,86	363,30697
882,077	-64,77222
882,294	235,08251
882,512	308,07199
882,729	132,50183
882,946	280,45441
883,163	-54,90839
883,38	106,85648
883,597	363,30697
883,814	288,34515
884,031	93,04742
884,248	280,45441
884,465	152,22897
884,682	162,09253
884,899	57,53829
885,116	-11,50771
885,333	195,62854
885,55	65,42922
885,766	144,33812
885,983	-13,48046
886,2	93,04742
886,417	-47,01734
886,634	144,33812
886,85	361,33429
887,067	25,97448
887,284	126,58368
887,501	110,80193
887,717	-29,2625
887,934	63,45649
888,151	73,32014
888,367	114,74737
888,584	122,63825
888,8	160,11982
889,017	209,43745
889,234	156,1744
889,45	-45,04457
889,667	45,70187
889,883	179,8469
890,099	89,10197
890,316	205,49204
890,532	242,97329
890,749	-74,63606
890,965	12,16527
891,181	199,57394
891,398	31,8927
891,614	181,81961
891,83	183,79231
892,047	231,13712
892,263	-88,44547
892,479	87,12924
892,695	8,21978
892,912	262,70021
893,128	132,50183
893,344	327,7988
893,56	87,12924
893,776	79,23833
893,992	310,04467
894,209	229,16443
894,425	152,22897
894,641	95,02014
894,857	55,56555
895,073	211,41015
895,289	79,23833
895,505	306,09931
895,721	-3,61671
895,937	83,18379
896,152	169,98336
896,368	288,34515
896,584	118,69281
896,8	262,70021
897,016	211,41015
897,232	25,97448
897,447	152,22897
897,663	-3,61671
897,879	100,93832
898,095	27,94722
898,31	310,04467
898,526	61,48375
898,742	156,1744
898,957	142,36541
899,173	120,66553
899,389	-187,08497
899,604	205,49204
899,82	122,63825
900,035	110,80193
900,251	282,42709
900,466	807,15258
900,682	288,34515
900,897	341,60754
901,113	158,14711
901,328	-27,28974
901,544	14,13802
901,759	262,70021
901,974	18,08351
902,19	-133,81944
902,405	-52,93562
902,62	20,05625
902,836	558,60031
903,051	-112,1188
903,266	8,21978
903,482	10,19253
903,697	-5,58946
903,912	177,87419
904,127	185,76502
904,342	497,44811
904,557	377,11567
904,773	325,82612
904,988	156,1744
905,203	164,06524
905,418	-3,61671
905,633	27,94722
905,848	175,90149
906,063	-54,90839
906,278	83,18379
906,493	152,22897
906,708	69,37468
906,923	148,28355
907,138	102,91104
907,352	93,04742
907,567	156,1744
907,782	59,51102
907,997	256,78214
908,212	106,85648
908,427	130,52912
908,641	67,40195
908,856	100,93832
909,071	144,33812
909,285	136,44726
909,5	77,2656
909,715	219,30094
909,929	150,25626
910,144	-104,22768
910,359	207,46475
910,573	4,27429
910,788	225,21903
911,002	166,03795
911,217	-7,56221
911,431	187,73772
911,646	41,7564
911,86	168,01066
912,075	434,32302
912,289	16,11076
912,504	-129,87386
912,718	262,70021
912,932	168,01066
913,147	-78,5816
913,361	63,45649
913,575	-45,04457
913,79	440,24101
914,004	164,06524
914,218	363,30697
914,432	-82,52715
914,646	396,84237
914,861	31,8927
915,075	296,23589
915,289	209,43745
915,503	-60,82668
915,717	199,57394
915,931	343,58022
916,145	215,35554
916,359	601,99852
916,573	365,27964
916,787	298,20858
917,001	231,13712
917,215	132,50183
917,429	104,88376
917,643	302,15394
917,857	288,34515
918,071	152,22897
918,285	229,16443
918,499	258,75483
918,713	-151,57456
918,926	-5,58946
919,14	-5,58946
919,354	469,83091
919,568	166,03795
919,781	260,72752
919,995	53,59282
920,209	18,08351
920,422	227,19173
920,636	24,00174
920,85	102,91104
921,063	-62,79945
921,277	242,97329
921,49	4,27429
921,704	205,49204
921,917	51,62008
922,131	209,43745
922,344	323,85344
922,558	33,86544
922,771	284,39978
922,985	420,51437
923,198	73,32014
923,412	335,68951
923,625	73,32014
923,838	75,29287
924,052	286,37247
924,265	310,04467
924,478	-100,28212
924,691	491,53014
924,905	349,49824
925,118	-48,9901
925,331	203,51934
925,544	10,19253
925,757	-33,20802
925,971	124,61096
926,184	-19,39872
926,397	189,71042
926,61	175,90149
926,823	150,25626
927,036	410,65104
927,249	140,39269
927,462	12,16527
927,675	144,33812
927,888	221,27364
928,101	51,62008
928,314	379,08834
928,527	377,11567
928,74	29,91996
928,953	442,21367
929,165	-17,42597
929,378	39,78366
929,591	434,32302
929,804	162,09253
930,017	233,10982
930,229	118,69281
930,442	189,71042
930,655	102,91104
930,867	187,73772
931,08	22,029
931,293	241,0006
931,505	-74,63606
931,718	102,91104
931,931	233,10982
932,143	146,31084
932,356	18,08351
932,568	-183,13936
932,781	-118,03715
932,993	96,99287
933,206	-25,31699
933,418	49,64735
933,631	347,52557
933,843	189,71042
934,055	69,37468
934,268	-39,12629
934,48	286,37247
934,692	20,05625
934,905	276,50903
935,117	-90,41824
935,329	177,87419
935,541	337,66219
935,754	408,67837
935,966	217,32824
936,178	199,57394
936,39	61,48375
936,602	-141,7106
936,814	142,36541
937,027	10,19253
937,239	49,64735
937,451	91,07469
937,663	142,36541
937,875	213,38285
938,087	10,19253
938,299	112,77465
938,511	298,20858
938,723	209,43745
938,935	102,91104
939,146	436,29568
939,358	270,59097
939,57	166,03795
939,782	164,06524
939,994	47,67461
940,206	345,55289
940,417	310,04467
940,629	87,12924
940,841	272,56366
941,053	158,14711
941,264	280,45441
941,476	365,27964
941,688	43,72914
941,899	436,29568
942,111	-3,61671
942,323	-92,39102
942,534	-52,93562
942,746	503,36607
942,957	41,7564
943,169	171,95607
943,38	124,61096
943,592	25,97448
943,803	27,94722
944,015	369,22498
944,226	-15,45322
944,437	335,68951
944,649	112,77465
944,86	-112,1188
945,071	288,34515
945,283	95,02014
945,494	18,08351
945,705	81,21106
945,917	312,01735
946,128	85,15651
946,339	201,54664
946,55	124,61096
946,761	487,58483
946,973	132,50183
947,184	150,25626
947,395	152,22897
947,606	-7,56221
947,817	209,43745
948,028	229,16443
948,239	110,80193
948,45	136,44726
948,661	355,41627
948,872	104,88376
949,083	410,65104
949,294	75,29287
949,505	187,73772
949,716	465,8856
949,927	246,91868
950,138	217,32824
950,348	108,82921
950,559	122,63825
950,77	209,43745
950,981	156,1744
951,191	294,26321
951,402	489,55749
951,613	81,21106
951,824	-167,35694
952,034	177,87419
952,245	235,08251
952,456	67,40195
952,666	-68,71775
952,877	315,96272
953,087	148,28355
953,298	79,23833
953,508	-60,82668
953,719	183,79231
953,929	327,7988
954,14	272,56366
954,35	0,32879
954,561	53,59282
954,771	270,59097
954,982	61,48375
955,192	100,93832
955,402	489,55749
955,613	260,72752
955,823	100,93832
956,033	12,16527
956,243	304,12663
956,454	390,92436
956,664	106,85648
956,874	532,95587
957,084	246,91868
957,294	-206,81307
957,505	85,15651
957,715	57,53829
957,925	278,48172
958,135	310,04467
958,345	248,89137
958,555	225,21903
958,765	132,50183
958,975	89,10197
959,185	-21,37148
959,395	235,08251
959,605	266,64559
959,815	260,72752
960,025	223,24634
960,235	313,99004
960,445	24,00174
960,654	-43,07181
960,864	217,32824
961,074	-100,28212
961,284	39,78366
961,494	300,18126
961,703	171,95607
961,913	49,64735
962,123	120,66553
962,332	197,60124
962,542	-90,41824
962,752	-3,61671
962,961	527,03791
963,171	235,08251
963,38	264,6729
963,59	93,04742
963,8	377,11567
964,009	-54,90839
964,219	122,63825
964,428	-60,82668
964,637	272,56366
964,847	71,34741
965,056	308,07199
965,266	242,97329
965,475	270,59097
965,684	239,0279
965,894	-19,39872
966,103	446,15899
966,312	-153,54736
966,522	-21,37148
966,731	2,30154
966,94	187,73772
967,149	337,66219
967,359	93,04742
967,568	108,82921
967,777	-21,37148
967,986	300,18126
968,195	497,44811
968,404	87,12924
968,613	12,16527
968,822	160,11982
969,031	-50,96286
969,24	248,89137
969,449	-50,96286
969,658	128,5564
969,867	286,37247
970,076	191,68313
970,285	239,0279
970,494	286,37247
970,703	219,30094
970,912	-112,1188
971,12	-80,55437
971,329	148,28355
971,538	112,77465
971,747	114,74737
971,956	91,07469
972,164	371,19766
972,373	422,48703
972,582	100,93832
972,79	124,61096
972,999	-147,62897
973,208	12,16527
973,416	-52,93562
973,625	59,51102
973,833	244,94599
974,042	116,72009
974,25	171,95607
974,459	148,28355
974,667	258,75483
974,876	300,18126
975,084	63,45649
975,293	390,92436
975,501	-153,54736
975,709	106,85648
975,918	402,76037
976,126	35,83818
976,334	294,26321
976,543	-210,7587
976,751	310,04467
976,959	-133,81944
977,168	-21,37148
977,376	164,06524
977,584	171,95607
977,792	183,79231
978	154,20169
978,208	-167,35694
978,416	209,43745
978,625	146,31084
978,833	317,9354
979,041	-1,64396
979,249	95,02014
979,457	211,41015
979,665	306,09931
979,873	49,64735
980,081	20,05625
980,289	67,40195
980,496	83,18379
980,704	-86,47269
980,912	227,19173
981,12	-21,37148
981,328	100,93832
981,536	-52,93562
981,743	331,74415
981,951	327,7988
982,159	93,04742
982,367	-23,34423
982,574	207,46475
982,782	442,21367
982,99	235,08251
983,197	-47,01734
983,405	83,18379
983,613	-179,19375
983,82	-3,61671
984,028	-3,61671
984,235	16,11076
984,443	-52,93562
984,65	523,09261
984,858	25,97448
985,065	377,11567
985,273	-208,78588
985,48	18,08351
985,687	195,62854
985,895	61,48375
986,102	209,43745
986,31	-21,37148
986,517	-92,39102
986,724	327,7988
986,931	-54,90839
987,139	377,11567
987,346	93,04742
987,553	-151,57456
987,76	2,30154
987,967	106,85648
988,175	185,76502
988,382	98,96559
988,589	473,77623
988,796	175,90149
989,003	250,86406
989,21	61,48375
989,417	49,64735
989,624	43,72914
989,831	171,95607
990,038	276,50903
990,245	95,02014
990,452	-68,71775
990,659	85,15651
990,866	225,21903
991,073	35,83818
991,279	221,27364
991,486	270,59097
991,693	98,96559
991,9	-76,60883
992,107	179,8469
992,313	241,0006
992,52	136,44726
992,727	160,11982
992,933	-64,77222
993,14	83,18379
993,347	-9,53496
993,553	160,11982
993,76	385,00635
993,966	79,23833
994,173	278,48172
994,38	379,08834
994,586	65,42922
994,793	327,7988
994,999	138,41998
995,205	156,1744
995,412	83,18379
995,618	-135,79223
995,825	448,13165
996,031	-64,77222
996,237	-31,23526
996,444	89,10197
996,65	122,63825
996,856	16,11076
997,063	308,07199
997,269	154,20169
997,475	81,21106
997,681	132,50183
997,887	201,54664
998,094	51,62008
998,3	325,82612
998,506	290,31784
998,712	-102,2549
998,918	337,66219
999,124	317,9354
999,33	-9,53496
999,536	106,85648
999,742	225,21903
999,948	150,25626
1000,154	144,33812
1000,36	126,58368
1000,566	112,77465
1000,772	164,06524
1000,978	209,43745
1001,184	294,26321
1001,389	315,96272
1001,595	199,57394
1001,801	244,94599
1002,007	73,32014
1002,212	-127,90107
1002,418	189,71042
1002,624	-17,42597
1002,83	-90,41824
1003,035	215,35554
1003,241	146,31084
1003,447	461,94028
1003,652	177,87419
1003,858	85,15651
1004,063	81,21106
1004,269	69,37468
1004,474	337,66219
1004,68	164,06524
1004,885	217,32824
1005,091	18,08351
1005,296	106,85648
1005,502	169,98336
1005,707	95,02014
1005,912	179,8469
1006,118	353,44359
1006,323	144,33812
1006,528	175,90149
1006,734	319,90808
1006,939	102,91104
1007,144	280,45441
1007,35	136,44726
1007,555	49,64735
1007,76	104,88376
1007,965	87,12924
1008,17	93,04742
1008,375	128,5564
1008,581	-48,9901
1008,786	10,19253
1008,991	150,25626
1009,196	-106,20046
1009,401	239,0279
1009,606	138,41998
1009,811	199,57394
1010,016	-70,69052
1010,221	349,49824
1010,426	-76,60883
1010,63	254,80945
1010,835	-37,15353
1011,04	-153,54736
1011,245	373,17033
1011,45	96,99287
1011,655	-112,1188
1011,859	377,11567
1012,064	286,37247
1012,269	29,91996
1012,474	-155,52015
1012,678	83,18379
1012,883	-196,94901
1013,088	-9,53496
1013,292	91,07469
1013,497	231,13712
1013,702	-52,93562
1013,906	150,25626
1014,111	351,47092
1014,315	-198,92182
1014,52	49,64735
1014,724	116,72009
1014,929	181,81961
1015,133	10,19253
1015,338	31,8927
1015,542	274,53634
1015,746	-133,81944
1015,951	497,44811
1016,155	144,33812
1016,359	114,74737
1016,564	87,12924
1016,768	134,47455
1016,972	20,05625
1017,176	-127,90107
1017,381	227,19173
1017,585	430,37769
1017,789	308,07199
1017,993	-13,48046
1018,197	-35,18077
1018,401	-11,50771
1018,606	321,88076
1018,81	201,54664
1019,014	-37,15353
1019,218	499,42076
1019,422	203,51934
1019,626	260,72752
1019,83	124,61096
1020,034	108,82921
1020,238	223,24634
1020,441	118,69281
1020,645	106,85648
1020,849	51,62008
1021,053	95,02014
1021,257	246,91868
1021,461	8,21978
1021,664	61,48375
1021,868	392,89703
1022,072	181,81961
1022,276	-9,53496
1022,479	390,92436
1022,683	134,47455
1022,887	225,21903
1023,09	20,05625
1023,294	221,27364
1023,498	282,42709
1023,701	193,65583
1023,905	183,79231
1024,108	41,7564
1024,312	-66,74498
1024,515	205,49204
1024,719	81,21106
1024,922	250,86406
1025,126	215,35554
1025,329	306,09931
1025,532	189,71042
1025,736	14,13802
1025,939	106,85648
1026,142	108,82921
1026,346	406,70571
1026,549	79,23833
1026,752	173,92878
1026,956	302,15394
1027,159	118,69281
1027,362	144,33812
1027,565	118,69281
1027,768	237,05521
1027,971	467,85825
1028,175	268,61828
1028,378	25,97448
1028,581	296,23589
1028,784	-125,92829
1028,987	65,42922
1029,19	-54,90839
1029,393	104,88376
1029,596	-37,15353
1029,799	477,72155
1030,002	179,8469
1030,205	-19,39872
1030,408	467,85825
1030,61	61,48375
1030,813	191,68313
1031,016	98,96559
1031,219	132,50183
1031,422	-25,31699
1031,624	347,52557
1031,827	262,70021
1032,03	2,30154
1032,233	0,32879
1032,435	189,71042
1032,638	505,33873
1032,841	452,07698
1033,043	108,82921
1033,246	110,80193
1033,448	71,34741
1033,651	351,47092
1033,853	317,9354
1034,056	173,92878
1034,258	319,90808
1034,461	225,21903
1034,663	14,13802
1034,866	266,64559
1035,068	173,92878
1035,271	-33,20802
1035,473	227,19173
1035,675	173,92878
1035,878	304,12663
1036,08	51,62008
1036,282	83,18379
1036,484	517,17465
1036,687	221,27364
1036,889	-5,58946
1037,091	388,95169
1037,293	262,70021
1037,495	108,82921
1037,698	-31,23526
1037,9	160,11982
1038,102	317,9354
1038,304	420,51437
1038,506	308,07199
1038,708	197,60124
1038,91	45,70187
1039,112	235,08251
1039,314	65,42922
1039,516	319,90808
1039,718	197,60124
1039,92	158,14711
1040,122	-94,36379
1040,323	144,33812
1040,525	18,08351
1040,727	264,6729
1040,929	-94,36379
1041,131	525,06526
1041,333	242,97329
1041,534	171,95607
1041,736	325,82612
1041,938	217,32824
1042,139	278,48172
1042,341	371,19766
1042,543	-153,54736
1042,744	333,71683
1042,946	-60,82668
1043,147	199,57394
1043,349	193,65583
1043,55	195,62854
1043,752	294,26321
1043,953	-5,58946
1044,155	242,97329
1044,356	-155,52015
1044,558	193,65583
1044,759	-60,82668
1044,961	120,66553
1045,162	130,52912
1045,363	444,18633
1045,565	-88,44547
1045,766	207,46475
1045,967	-56,88115
1046,168	266,64559
1046,37	144,33812
1046,571	98,96559
1046,772	-76,60883
1046,973	584,24472
1047,174	-62,79945
1047,376	57,53829
1047,577	211,41015
1047,778	156,1744
1047,979	209,43745
1048,18	276,50903
1048,381	53,59282
1048,582	576,35414
1048,783	426,43236
1048,984	306,09931
1049,185	525,06526
1049,386	205,49204
1049,587	276,50903
1049,788	268,61828
1049,988	154,20169
1050,189	219,30094
1050,39	177,87419
1050,591	16,11076
1050,792	197,60124
1050,992	57,53829
1051,193	-58,85392
1051,394	341,60754
1051,594	43,72914
1051,795	79,23833
1051,996	14,13802
1052,196	195,62854
1052,397	69,37468
1052,598	93,04742
1052,798	93,04742
