Data from Philips_2700K_7,3W_1535Lumen_250ms_1__0__15-14-47-545.txt Node

Date: Thu Dec 18 15:14:47 CET 2025
User: Stefan
Spectrometer: ?
Trigger mode: 0
Integration Time (sec): 2,500000E-1
Scans to average: 1
Electric dark correction enabled: true
Nonlinearity correction enabled: true
Boxcar width: 0
XAxis mode: Wavelengths
Number of Pixels in Spectrum: 3648
>>>>>Begin Spectral Data<<<<<
195,033	-354,7762
195,299	-354,7762
195,565	-354,7762
195,831	-360,69482
196,098	-264,02497
196,364	132,50183
196,63	85,15651
196,896	-1,64396
197,162	-56,88115
197,428	-27,28974
197,694	-19,39872
197,96	-98,30934
198,226	8,21978
198,492	-31,23526
198,757	-54,90839
199,023	43,72914
199,289	20,05625
199,555	148,28355
199,821	89,10197
200,087	85,15651
200,353	118,69281
200,618	-43,07181
200,884	217,32824
201,15	65,42922
201,416	59,51102
201,682	104,88376
201,947	288,34515
202,213	146,31084
202,479	93,04742
202,744	16,11076
203,01	175,90149
203,276	110,80193
203,541	63,45649
203,807	102,91104
204,073	108,82921
204,338	53,59282
204,604	29,91996
204,869	45,70187
205,135	-25,31699
205,401	67,40195
205,666	59,51102
205,932	173,92878
206,197	35,83818
206,463	43,72914
206,728	197,60124
206,994	-125,92829
207,259	120,66553
207,524	59,51102
207,79	51,62008
208,055	89,10197
208,321	53,59282
208,586	171,95607
208,851	51,62008
209,117	114,74737
209,382	-52,93562
209,647	16,11076
209,913	169,98336
210,178	130,52912
210,443	83,18379
210,708	-76,60883
210,974	2,30154
211,239	63,45649
211,504	150,25626
211,769	154,20169
212,034	199,57394
212,3	96,99287
212,565	10,19253
212,83	85,15651
213,095	20,05625
213,36	108,82921
213,625	-17,42597
213,89	73,32014
214,155	39,78366
214,42	166,03795
214,685	-50,96286
214,95	181,81961
215,215	29,91996
215,48	195,62854
215,745	152,22897
216,01	-27,28974
216,275	164,06524
216,54	83,18379
216,805	-11,50771
217,07	14,13802
217,335	71,34741
217,6	59,51102
217,864	55,56555
218,129	181,81961
218,394	154,20169
218,659	22,029
218,924	130,52912
219,188	116,72009
219,453	199,57394
219,718	193,65583
219,983	98,96559
220,247	43,72914
220,512	122,63825
220,777	239,0279
221,041	162,09253
221,306	268,61828
221,571	16,11076
221,835	252,83676
222,1	33,86544
222,364	83,18379
222,629	160,11982
222,894	-13,48046
223,158	-25,31699
223,423	104,88376
223,687	98,96559
223,952	10,19253
224,216	104,88376
224,481	169,98336
224,745	61,48375
225,009	126,58368
225,274	211,41015
225,538	128,5564
225,803	237,05521
226,067	106,85648
226,331	25,97448
226,596	-43,07181
226,86	89,10197
227,124	290,31784
227,389	31,8927
227,653	164,06524
227,917	71,34741
228,181	-1,64396
228,446	71,34741
228,71	10,19253
228,974	47,67461
229,238	144,33812
229,502	59,51102
229,767	-9,53496
230,031	120,66553
230,295	120,66553
230,559	116,72009
230,823	47,67461
231,087	150,25626
231,351	353,44359
231,615	357,38894
231,879	24,00174
232,143	128,5564
232,407	164,06524
232,671	75,29287
232,935	195,62854
233,199	53,59282
233,463	116,72009
233,727	83,18379
233,991	12,16527
234,255	91,07469
234,519	189,71042
234,783	51,62008
235,047	8,21978
235,311	67,40195
235,574	59,51102
235,838	89,10197
236,102	35,83818
236,366	104,88376
236,63	55,56555
236,893	173,92878
237,157	144,33812
237,421	110,80193
237,684	112,77465
237,948	29,91996
238,212	93,04742
238,475	116,72009
238,739	124,61096
239,003	199,57394
239,266	315,96272
239,53	173,92878
239,794	79,23833
240,057	55,56555
240,321	108,82921
240,584	65,42922
240,848	29,91996
241,111	77,2656
241,375	168,01066
241,638	260,72752
241,902	112,77465
242,165	91,07469
242,429	55,56555
242,692	93,04742
242,955	73,32014
243,219	160,11982
243,482	166,03795
243,746	29,91996
244,009	217,32824
244,272	148,28355
244,536	57,53829
244,799	171,95607
245,062	35,83818
245,325	67,40195
245,589	31,8927
245,852	152,22897
246,115	233,10982
246,378	-70,69052
246,641	91,07469
246,905	25,97448
247,168	-5,58946
247,431	162,09253
247,694	124,61096
247,957	106,85648
248,22	120,66553
248,483	-17,42597
248,746	114,74737
249,009	8,21978
249,273	59,51102
249,536	69,37468
249,799	75,29287
250,062	114,74737
250,324	85,15651
250,587	55,56555
250,85	55,56555
251,113	130,52912
251,376	130,52912
251,639	154,20169
251,902	112,77465
252,165	254,80945
252,428	83,18379
252,691	201,54664
252,953	63,45649
253,216	81,21106
253,479	108,82921
253,742	-19,39872
254,005	20,05625
254,267	144,33812
254,53	199,57394
254,793	189,71042
255,055	158,14711
255,318	95,02014
255,581	140,39269
255,843	112,77465
256,106	73,32014
256,369	37,81092
256,631	93,04742
256,894	-70,69052
257,157	124,61096
257,419	-48,9901
257,682	162,09253
257,944	209,43745
258,207	57,53829
258,469	75,29287
258,732	102,91104
258,994	91,07469
259,257	0,32879
259,519	69,37468
259,781	138,41998
260,044	77,2656
260,306	-11,50771
260,569	45,70187
260,831	55,56555
261,093	63,45649
261,356	146,31084
261,618	213,38285
261,88	63,45649
262,143	-45,04457
262,405	-1,64396
262,667	-15,45322
262,929	-45,04457
263,192	175,90149
263,454	-25,31699
263,716	71,34741
263,978	148,28355
264,24	144,33812
264,502	29,91996
264,765	146,31084
265,027	195,62854
265,289	130,52912
265,551	57,53829
265,813	43,72914
266,075	-23,34423
266,337	173,92878
266,599	12,16527
266,861	29,91996
267,123	102,91104
267,385	57,53829
267,647	33,86544
267,909	51,62008
268,171	91,07469
268,433	-29,2625
268,695	144,33812
268,957	85,15651
269,219	12,16527
269,48	237,05521
269,742	6,24704
270,004	61,48375
270,266	35,83818
270,528	79,23833
270,789	187,73772
271,051	158,14711
271,313	91,07469
271,575	71,34741
271,836	116,72009
272,098	87,12924
272,36	120,66553
272,621	114,74737
272,883	18,08351
273,145	43,72914
273,406	6,24704
273,668	116,72009
273,93	12,16527
274,191	49,64735
274,453	43,72914
274,714	150,25626
274,976	67,40195
275,237	102,91104
275,499	18,08351
275,76	0,32879
276,022	77,2656
276,283	-27,28974
276,545	81,21106
276,806	-9,53496
277,068	171,95607
277,329	91,07469
277,59	67,40195
277,852	37,81092
278,113	87,12924
278,374	79,23833
278,636	173,92878
278,897	12,16527
279,158	63,45649
279,42	29,91996
279,681	168,01066
279,942	156,1744
280,203	95,02014
280,464	61,48375
280,726	35,83818
280,987	-33,20802
281,248	102,91104
281,509	37,81092
281,77	35,83818
282,031	59,51102
282,292	142,36541
282,554	175,90149
282,815	-31,23526
283,076	138,41998
283,337	158,14711
283,598	2,30154
283,859	108,82921
284,12	108,82921
284,381	83,18379
284,642	132,50183
284,903	2,30154
285,164	-58,85392
285,424	138,41998
285,685	59,51102
285,946	4,27429
286,207	124,61096
286,468	-7,56221
286,729	-11,50771
286,99	217,32824
287,25	16,11076
287,511	47,67461
287,772	6,24704
288,033	122,63825
288,294	106,85648
288,554	-9,53496
288,815	45,70187
289,076	118,69281
289,336	-15,45322
289,597	31,8927
289,858	241,0006
290,118	122,63825
290,379	57,53829
290,639	140,39269
290,9	10,19253
291,161	-23,34423
291,421	27,94722
291,682	144,33812
291,942	39,78366
292,203	53,59282
292,463	-5,58946
292,724	39,78366
292,984	25,97448
293,245	211,41015
293,505	71,34741
293,766	124,61096
294,026	708,52103
294,286	199,57394
294,547	213,38285
294,807	100,93832
295,067	162,09253
295,328	75,29287
295,588	53,59282
295,848	116,72009
296,109	55,56555
296,369	102,91104
296,629	91,07469
296,889	229,16443
297,15	95,02014
297,41	136,44726
297,67	215,35554
297,93	-7,56221
298,19	-29,2625
298,45	144,33812
298,711	69,37468
298,971	219,30094
299,231	136,44726
299,491	108,82921
299,751	160,11982
300,011	24,00174
300,271	122,63825
300,531	168,01066
300,791	98,96559
301,051	-88,44547
301,311	246,91868
301,571	31,8927
301,831	148,28355
302,091	67,40195
302,351	-47,01734
302,61	223,24634
302,87	-37,15353
303,13	138,41998
303,39	-23,34423
303,65	152,22897
303,91	-13,48046
304,169	18,08351
304,429	35,83818
304,689	187,73772
304,949	254,80945
305,209	152,22897
305,468	77,2656
305,728	-15,45322
305,988	79,23833
306,247	81,21106
306,507	53,59282
306,767	189,71042
307,026	104,88376
307,286	195,62854
307,545	41,7564
307,805	83,18379
308,065	160,11982
308,324	-9,53496
308,584	-74,63606
308,843	22,029
309,103	16,11076
309,362	128,5564
309,622	98,96559
309,881	55,56555
310,14	177,87419
310,4	211,41015
310,659	183,79231
310,919	-27,28974
311,178	89,10197
311,437	158,14711
311,697	55,56555
311,956	-9,53496
312,215	-19,39872
312,475	57,53829
312,734	136,44726
312,993	49,64735
313,252	134,47455
313,512	130,52912
313,771	124,61096
314,03	116,72009
314,289	254,80945
314,548	148,28355
314,808	91,07469
315,067	162,09253
315,326	-54,90839
315,585	65,42922
315,844	138,41998
316,103	237,05521
316,362	0,32879
316,621	215,35554
316,88	171,95607
317,139	71,34741
317,398	53,59282
317,657	77,2656
317,916	37,81092
318,175	-39,12629
318,434	179,8469
318,693	106,85648
318,952	71,34741
319,211	4,27429
319,47	77,2656
319,729	4,27429
319,987	106,85648
320,246	-92,39102
320,505	71,34741
320,764	12,16527
321,023	91,07469
321,281	122,63825
321,54	73,32014
321,799	49,64735
322,058	47,67461
322,316	83,18379
322,575	-11,50771
322,834	81,21106
323,092	14,13802
323,351	112,77465
323,609	75,29287
323,868	67,40195
324,127	-5,58946
324,385	55,56555
324,644	120,66553
324,902	150,25626
325,161	252,83676
325,419	77,2656
325,678	-37,15353
325,936	108,82921
326,195	140,39269
326,453	223,24634
326,712	146,31084
326,97	69,37468
327,228	20,05625
327,487	138,41998
327,745	37,81092
328,004	225,21903
328,262	67,40195
328,52	142,36541
328,779	63,45649
329,037	146,31084
329,295	-35,18077
329,553	126,58368
329,812	160,11982
330,07	108,82921
330,328	-35,18077
330,586	31,8927
330,844	112,77465
331,103	22,029
331,361	87,12924
331,619	12,16527
331,877	120,66553
332,135	18,08351
332,393	126,58368
332,651	120,66553
332,909	27,94722
333,167	73,32014
333,425	33,86544
333,683	41,7564
333,941	81,21106
334,199	154,20169
334,457	116,72009
334,715	96,99287
334,973	93,04742
335,231	-5,58946
335,489	-50,96286
335,747	87,12924
336,005	85,15651
336,262	-54,90839
336,52	93,04742
336,778	24,00174
337,036	152,22897
337,294	83,18379
337,551	116,72009
337,809	173,92878
338,067	156,1744
338,325	199,57394
338,582	4,27429
338,84	39,78366
339,098	183,79231
339,355	27,94722
339,613	175,90149
339,871	91,07469
340,128	85,15651
340,386	191,68313
340,643	237,05521
340,901	140,39269
341,159	122,63825
341,416	169,98336
341,674	85,15651
341,931	148,28355
342,189	67,40195
342,446	98,96559
342,703	102,91104
342,961	229,16443
343,218	193,65583
343,476	47,67461
343,733	-15,45322
343,99	93,04742
344,248	298,20858
344,505	91,07469
344,762	246,91868
345,02	120,66553
345,277	142,36541
345,534	114,74737
345,792	71,34741
346,049	-5,58946
346,306	69,37468
346,563	57,53829
346,82	114,74737
347,078	85,15651
347,335	104,88376
347,592	237,05521
347,849	175,90149
348,106	55,56555
348,363	20,05625
348,62	116,72009
348,877	199,57394
349,135	49,64735
349,392	175,90149
349,649	24,00174
349,906	27,94722
350,163	140,39269
350,42	85,15651
350,676	100,93832
350,933	-33,20802
351,19	130,52912
351,447	39,78366
351,704	87,12924
351,961	150,25626
352,218	244,94599
352,475	130,52912
352,732	65,42922
352,988	104,88376
353,245	179,8469
353,502	-25,31699
353,759	95,02014
354,015	108,82921
354,272	164,06524
354,529	-86,47269
354,786	20,05625
355,042	179,8469
355,299	110,80193
355,556	75,29287
355,812	211,41015
356,069	-3,61671
356,325	102,91104
356,582	160,11982
356,839	79,23833
357,095	169,98336
357,352	280,45441
357,608	116,72009
357,865	49,64735
358,121	100,93832
358,378	79,23833
358,634	173,92878
358,891	-47,01734
359,147	22,029
359,404	110,80193
359,66	104,88376
359,916	160,11982
360,173	183,79231
360,429	166,03795
360,685	175,90149
360,942	25,97448
361,198	152,22897
361,454	175,90149
361,711	100,93832
361,967	53,59282
362,223	69,37468
362,479	250,86406
362,735	171,95607
362,992	91,07469
363,248	185,76502
363,504	114,74737
363,76	102,91104
364,016	51,62008
364,272	221,27364
364,528	27,94722
364,785	20,05625
365,041	128,5564
365,297	71,34741
365,553	116,72009
365,809	189,71042
366,065	158,14711
366,321	41,7564
366,577	223,24634
366,833	71,34741
367,089	81,21106
367,344	179,8469
367,6	61,48375
367,856	171,95607
368,112	96,99287
368,368	57,53829
368,624	110,80193
368,88	95,02014
369,135	142,36541
369,391	100,93832
369,647	-29,2625
369,903	211,41015
370,158	108,82921
370,414	57,53829
370,67	0,32879
370,926	100,93832
371,181	173,92878
371,437	189,71042
371,693	160,11982
371,948	164,06524
372,204	150,25626
372,459	73,32014
372,715	65,42922
372,971	171,95607
373,226	83,18379
373,482	195,62854
373,737	274,53634
373,993	85,15651
374,248	-19,39872
374,504	102,91104
374,759	237,05521
375,015	209,43745
375,27	268,61828
375,525	67,40195
375,781	175,90149
376,036	41,7564
376,291	51,62008
376,547	65,42922
376,802	39,78366
377,057	168,01066
377,313	-1,64396
377,568	154,20169
377,823	49,64735
378,079	207,46475
378,334	140,39269
378,589	193,65583
378,844	98,96559
379,099	195,62854
379,354	73,32014
379,61	79,23833
379,865	252,83676
380,12	-19,39872
380,375	130,52912
380,63	191,68313
380,885	89,10197
381,14	235,08251
381,395	91,07469
381,65	95,02014
381,905	89,10197
382,16	278,48172
382,415	126,58368
382,67	35,83818
382,925	69,37468
383,18	93,04742
383,435	199,57394
383,69	116,72009
383,945	142,36541
384,2	59,51102
384,454	130,52912
384,709	160,11982
384,964	59,51102
385,219	100,93832
385,474	138,41998
385,728	122,63825
385,983	187,73772
386,238	173,92878
386,493	169,98336
386,747	142,36541
387,002	185,76502
387,257	150,25626
387,511	203,51934
387,766	122,63825
388,02	89,10197
388,275	201,54664
388,53	156,1744
388,784	138,41998
389,039	114,74737
389,293	246,91868
389,548	185,76502
389,802	146,31084
390,057	24,00174
390,311	323,85344
390,566	120,66553
390,82	47,67461
391,075	233,10982
391,329	41,7564
391,583	183,79231
391,838	-1,64396
392,092	136,44726
392,346	154,20169
392,601	116,72009
392,855	156,1744
393,109	130,52912
393,364	112,77465
393,618	166,03795
393,872	110,80193
394,126	166,03795
394,381	209,43745
394,635	286,37247
394,889	116,72009
395,143	152,22897
395,397	104,88376
395,651	315,96272
395,905	85,15651
396,16	264,6729
396,414	278,48172
396,668	93,04742
396,922	112,77465
397,176	71,34741
397,43	189,71042
397,684	41,7564
397,938	59,51102
398,192	175,90149
398,446	258,75483
398,7	65,42922
398,954	61,48375
399,207	201,54664
399,461	258,75483
399,715	150,25626
399,969	116,72009
400,223	205,49204
400,477	280,45441
400,731	114,74737
400,984	168,01066
401,238	217,32824
401,492	108,82921
401,746	169,98336
401,999	181,81961
402,253	262,70021
402,507	130,52912
402,76	158,14711
403,014	177,87419
403,268	144,33812
403,521	235,08251
403,775	166,03795
404,029	266,64559
404,282	209,43745
404,536	235,08251
404,789	323,85344
405,043	164,06524
405,296	296,23589
405,55	110,80193
405,803	201,54664
406,057	211,41015
406,31	221,27364
406,564	300,18126
406,817	191,68313
407,07	268,61828
407,324	193,65583
407,577	227,19173
407,83	258,75483
408,084	231,13712
408,337	278,48172
408,59	185,76502
408,844	233,10982
409,097	154,20169
409,35	337,66219
409,603	164,06524
409,857	221,27364
410,11	288,34515
410,363	319,90808
410,616	284,39978
410,869	205,49204
411,123	333,71683
411,376	300,18126
411,629	284,39978
411,882	302,15394
412,135	290,31784
412,388	329,77147
412,641	365,27964
412,894	345,55289
413,147	534,92852
413,4	335,68951
413,653	312,01735
413,906	258,75483
414,159	418,5417
414,412	367,25231
414,665	359,36162
414,918	473,77623
415,17	394,8697
415,423	408,67837
415,676	300,18126
415,929	213,38285
416,182	452,07698
416,435	392,89703
416,687	469,83091
416,94	349,49824
417,193	507,31138
417,446	444,18633
417,698	493,5028
417,951	430,37769
418,204	428,40503
418,456	444,18633
418,709	515,202
418,962	493,5028
419,214	615,80703
419,467	546,76442
419,719	550,70972
419,972	625,67024
420,225	584,24472
420,477	578,32678
420,73	542,81912
420,982	765,72738
421,235	688,79468
421,487	601,99852
421,74	621,72495
421,992	722,32947
422,244	637,50608
422,497	720,35684
422,749	692,73995
423,002	730,22001
423,254	651,31456
423,506	793,34419
423,759	854,49561
424,011	848,57774
424,263	832,79673
424,515	809,12521
424,768	931,4279
425,02	791,37156
425,272	828,85148
425,524	947,20886
425,776	1105,0182
426,029	1079,37422
426,281	1134,6074
426,533	964,96244
426,785	957,07196
427,037	1047,81237
427,289	1164,19658
427,541	927,48266
427,793	1047,81237
428,045	1016,25051
428,297	1041,89453
428,549	1144,47046
428,801	1164,19658
429,053	1278,60797
429,305	1243,10101
429,557	1327,92317
429,809	1398,93699
430,061	1337,7862
430,313	1339,75881
430,565	1448,2521
430,817	1308,19709
431,069	1272,69015
431,32	1420,63564
431,572	1495,59458
431,824	1456,14252
432,076	1318,06013
432,328	1442,33429
432,579	1738,22419
432,831	1535,04662
433,083	1511,3754
433,334	1533,07402
433,586	1641,567
433,838	1663,26557
434,089	1771,75828
434,341	1901,94915
434,593	1777,67605
434,844	1860,52483
435,096	1826,99082
435,347	1925,62017
435,599	1722,44344
435,851	1915,75724
436,102	1795,42938
436,354	2036,08466
436,605	1978,87988
436,856	2081,45386
437,108	2028,19435
437,359	2158,38406
437,611	2022,27662
437,862	2272,79251
438,114	2126,82299
438,365	2286,60038
438,616	2485,82676
438,868	2211,64325
439,119	2483,85424
439,37	2462,15645
439,621	2481,88171
439,873	2543,02982
440,124	2578,53502
440,375	2817,20562
440,626	2570,64499
440,878	2580,50753
441,129	2633,76511
441,38	2698,85732
441,631	2720,55463
441,882	2927,66248
442,133	2763,94908
442,385	2825,09544
442,636	2890,18623
442,887	2951,3316
443,138	2917,80033
443,389	2905,96573
443,64	3111,09598
443,891	3130,8197
444,142	3024,31088
444,393	3152,51572
444,644	3221,54794
444,895	3363,55431
445,146	3389,19392
445,396	3146,59863
445,647	3499,63986
445,898	3422,72243
446,149	3588,38904
446,4	3531,19534
446,651	3752,07683
446,902	3578,52812
447,152	3933,50524
447,403	4170,13547
447,654	4039,99115
447,905	4067,598
448,155	4252,95147
448,406	4142,52959
448,657	4501,38359
448,907	4428,43389
449,158	4773,4456
449,409	4420,5473
449,659	4641,36174
449,91	4785,2736
450,16	4645,30466
450,411	5019,84771
450,662	5106,57362
450,912	4771,47426
451,163	4919,31942
451,413	4962,68522
451,664	5398,25633
451,914	5421,90403
452,165	5096,71861
452,415	5593,33907
452,665	5437,66896
452,916	5682,00471
453,166	5331,25264
453,417	5201,1789
453,667	5449,49256
453,917	5626,8356
454,168	5382,49101
454,418	5372,6376
454,668	5390,37369
454,918	5620,9245
455,169	5382,49101
455,419	5339,13558
455,669	5323,36968
455,919	5295,77899
456,17	5155,84784
456,42	5453,43373
456,67	4998,16559
456,92	5041,52957
457,17	5008,02113
457,42	4753,73212
457,67	5240,59625
457,92	4844,41258
458,17	4649,24757
458,421	4726,13293
458,671	4572,35951
458,921	4420,5473
459,171	4337,73662
459,421	4258,8668
459,67	4128,72655
459,92	4264,78212
460,17	4034,07536
460,42	4043,935
460,67	3976,88882
460,92	3698,82976
461,17	3827,01581
461,42	3600,22213
461,67	3732,35578
461,919	3383,2771
462,169	3499,63986
462,419	3335,94227
462,669	3383,2771
462,918	3371,44344
463,168	3416,80566
463,418	3215,63093
463,668	3089,39982
463,917	3140,68154
464,167	3186,04576
464,417	3063,7588
464,666	2931,60734
464,916	3022,33847
465,165	3055,86923
465,415	2998,6696
465,664	2870,4618
465,914	2947,38675
466,164	2996,69719
466,413	2902,02085
466,663	2838,90262
466,912	3472,02863
467,161	3042,06247
467,411	2892,15867
467,66	2758,03167
467,91	2639,6826
468,159	2692,93986
468,408	2821,15053
468,658	2710,69222
468,907	2619,95761
469,157	2687,02241
469,406	2748,1693
469,655	2690,96738
469,904	2679,13245
470,154	2586,42505
470,403	2639,6826
470,652	2629,82011
470,901	2649,54508
471,15	2489,77181
471,4	2545,00234
471,649	2616,01261
471,898	2487,79929
472,147	2509,49703
472,396	2497,6619
472,645	2462,15645
472,894	2470,04656
473,143	2349,72191
473,392	2519,35962
473,641	2410,87063
473,89	2519,35962
474,139	2329,99646
474,388	2414,8157
474,637	2424,67837
474,886	2371,41987
475,135	2329,99646
475,384	2298,43569
475,633	2357,61208
475,882	2255,03952
476,131	2284,62783
476,38	2077,50872
476,628	2085,39901
476,877	2245,17674
477,126	2178,1097
477,375	2260,95719
477,624	2326,05136
477,872	2353,66699
478,121	2083,42644
478,37	2053,83783
478,618	2107,09729
478,867	2114,98757
479,116	2318,16118
479,364	2128,79555
479,613	2116,96014
479,862	2120,90528
480,11	2235,31396
480,359	2174,16458
480,607	2099,20701
480,856	2211,64325
481,104	2367,47479
481,353	2302,38079
481,601	2331,969
481,85	2113,015
482,098	2184,02739
482,347	2227,42373
482,595	2217,56093
482,844	2387,20019
483,092	2272,79251
483,34	2264,9023
483,589	2460,18393
483,837	2381,28257
484,085	2430,59597
484,334	2345,77682
484,582	2373,39241
484,83	2379,31003
485,078	2675,18748
485,327	2401,00795
485,575	2452,29381
485,823	2300,40824
486,071	2663,35253
486,319	2598,26009
486,568	3012,47645
486,816	2702,80229
487,064	2726,47206
487,312	2710,69222
487,56	2811,28824
487,808	2687,02241
488,056	2852,70978
488,304	2896,10354
488,552	3069,67597
488,8	2858,62713
489,048	2967,11097
489,296	3089,39982
489,544	3047,97966
489,792	3091,3722
490,04	3150,54335
490,288	3004,58682
490,536	3180,12871
490,784	3225,49262
491,031	3290,57931
491,279	3257,0499
491,527	3452,30622
491,775	3335,94227
492,023	3464,13967
492,27	3355,66517
492,518	3452,30622
492,766	3558,80619
493,014	3752,07683
493,261	3694,88551
493,509	3860,54062
493,757	3929,56124
494,004	3848,70838
494,252	4012,38404
494,499	3892,09309
494,747	4006,4682
494,995	4026,18762
495,242	4083,37323
495,49	4319,99112
495,737	4369,28387
495,985	4327,87802
496,232	4534,90027
496,48	4737,9612
496,727	4477,72447
496,975	4623,61851
497,222	4666,99059
497,469	4824,69978
497,717	4872,01017
497,964	4986,33887
498,212	5051,38488
498,459	5132,19639
498,706	5242,56709
498,954	5080,95049
499,201	5425,84527
499,448	5449,49256
499,695	5636,68738
499,943	5711,55873
500,19	5713,52897
500,437	5959,78784
500,684	5904,62971
500,931	5900,68976
501,179	6237,51279
501,426	6044,4905
501,673	6105,55177
501,92	6349,76695
502,167	6454,1341
502,414	6597,86956
502,661	6879,37907
502,908	6855,75876
503,155	7040,77002
503,402	7017,15344
503,649	7133,26293
503,896	7398,88501
504,143	7465,77063
504,39	7625,09601
504,637	7845,35068
504,884	7688,03157
505,131	7544,45334
505,378	7967,25316
505,624	8142,21116
505,871	8287,65334
506,118	8039,993
506,365	8545,05993
506,612	8277,82699
506,858	8635,42669
507,105	8680,60605
507,352	8792,56059
507,599	8955,55192
507,845	9030,16234
508,092	9102,80192
508,339	9426,64472
508,585	9424,68248
508,832	9650,30242
509,079	9334,41381
509,325	9815,05563
509,572	9638,53279
509,818	10011,13727
510,065	9824,86109
510,311	10338,46247
510,558	10393,32705
510,804	10410,96109
511,051	10456,02365
511,297	10559,85124
511,544	10781,16228
511,79	10730,24809
512,037	10671,49579
512,283	11094,38819
512,529	11164,84202
512,776	11084,60229
513,022	10965,20178
513,268	11515,03292
513,515	11577,6155
513,761	11472,00363
514,007	11653,87919
514,254	11927,56623
514,5	11669,52183
514,746	11865,02026
514,992	12164,0087
515,238	12236,29048
515,485	12216,75573
515,731	12513,61425
515,977	12470,65712
516,223	12326,142
516,469	12831,79026
516,715	12837,64465
516,961	12646,3711
517,207	13058,11789
517,453	12903,99038
517,699	13175,14992
517,945	12773,24313
518,191	13270,70893
518,437	13062,01933
518,683	13364,30283
518,929	13432,53909
519,175	13481,27448
519,421	13711,2518
519,667	13680,07362
519,913	13886,59888
520,159	13900,23485
520,404	13804,77661
520,65	14137,84083
520,896	14126,15747
521,142	14202,09532
521,388	14048,26264
521,633	14180,67791
521,879	14470,72282
522,125	14507,69858
522,37	14624,44967
522,616	14694,48981
522,862	14589,42665
523,107	14914,28724
523,353	14838,43662
523,599	15036,79602
523,844	14908,4529
524,09	14871,50083
524,335	15069,84992
524,581	15174,83334
524,826	15040,68481
525,072	15275,91236
525,317	15619,85282
525,563	15353,65475
525,808	15511,05487
526,054	15547,97045
526,299	15308,95401
526,545	15635,39393
526,79	15608,19674
527,035	15720,86364
527,281	15530,48438
527,526	15736,40243
527,771	15821,85936
528,017	15893,71257
528,262	15577,11288
528,507	16033,51353
528,752	16493,49568
528,998	16190,75607
529,243	16014,09842
529,488	16390,6561
529,733	16250,92604
529,978	16375,13187
530,224	16382,89403
530,469	16221,81218
530,714	16115,0511
530,959	16530,35918
531,204	16720,46809
531,449	16573,04093
531,694	16410,0609
531,939	16621,53992
532,184	16584,68097
532,429	16768,95754
532,674	16718,52845
532,919	16788,35245
533,164	16823,26205
533,409	16906,65075
533,654	16664,21642
533,899	17251,74671
534,144	17015,23653
534,388	17381,60404
534,633	17129,62315
534,878	17317,64703
535,123	17139,31618
535,368	17424,23931
535,612	17017,17542
535,857	17488,18813
536,102	17393,23206
536,347	17373,85194
536,591	17298,26513
536,836	17482,3748
537,081	17587,00864
537,325	17356,40944
537,57	17579,25842
537,815	17503,69015
538,059	17269,19143
538,304	17371,9139
538,548	17714,87714
538,793	17484,31259
539,037	17792,36413
539,282	18166,14587
539,526	17924,07658
539,771	17726,50063
540,015	17790,42703
540,26	17854,34885
540,504	17922,13977
540,749	18233,91419
540,993	18084,81756
541,237	17993,79898
541,482	18094,49987
541,726	18357,82123
541,97	18168,08218
542,215	18454,61289
542,459	18168,08218
542,703	18284,25331
542,948	18361,69308
543,192	18429,44795
543,436	18204,87121
543,68	18290,0615
543,924	18464,29155
544,169	18526,2328
544,413	18897,80456
544,657	18762,35036
544,901	18483,64859
545,145	18795,2479
545,389	18725,58137
545,633	18837,81973
545,877	18475,90582
546,121	18557,20203
546,365	18936,50278
546,609	19068,06706
546,853	18729,45185
547,097	19060,32839
547,341	19282,79547
547,585	19282,79547
547,829	18779,76683
548,073	19147,38553
548,317	19371,77126
548,561	19199,61683
548,805	19238,30525
549,048	19462,67504
549,292	18950,04685
549,536	19592,25072
549,78	19445,26841
550,023	19569,04402
550,267	19468,4772
550,511	19683,13993
550,755	19733,41661
550,998	19559,37446
551,242	19246,0428
551,486	19891,97049
551,729	19857,16738
551,973	19932,57313
552,216	19663,80228
552,46	20075,64101
552,704	19814,62919
552,947	20118,17234
553,191	19582,58131
553,434	19777,89071
553,678	19901,63788
553,921	19861,03443
554,165	20135,57122
554,408	20390,73547
554,652	19659,93472
554,895	20139,43761
555,138	19992,50849
555,382	20191,63309
555,625	20245,76013
555,868	20483,51403
556,112	20410,06469
556,355	20568,55736
556,598	20149,10356
556,842	20698,04877
557,085	20759,89284
557,328	20587,88491
557,571	20628,47223
557,814	20777,28619
558,058	20723,17312
558,301	21190,82819
558,544	20603,34683
558,787	21009,18633
559,03	21096,14388
559,273	21204,3543
559,516	21074,88782
559,759	20935,75347
560,003	21042,03726
560,246	21208,21889
560,489	21277,7808
560,732	21863,21581
560,975	21275,84854
561,217	21656,48554
561,46	21863,21581
561,703	21928,9046
561,946	21561,8123
562,189	22377,12594
562,432	21917,31249
562,675	22323,03057
562,918	22417,6975
563,161	22813,75819
563,403	22460,20108
563,646	22902,6326
563,889	23039,8108
564,132	22981,84778
564,374	22898,76847
564,617	23215,63611
564,86	23001,16872
565,102	23416,58843
565,345	23530,59531
565,588	23613,68768
565,83	23698,71487
566,073	24011,79348
566,316	23760,55448
566,558	23994,39916
566,801	23352,82354
567,043	23403,06245
567,286	23721,90456
567,528	23936,41902
567,771	23928,68844
568,013	23797,27243
568,256	23791,47482
568,498	23832,05834
568,741	23679,39029
568,983	23961,54356
569,225	23667,7956
569,468	23835,92347
569,71	23387,60425
569,952	23721,90456
570,195	23681,32274
570,437	23971,20692
570,679	23439,77595
570,922	23493,8808
571,164	23781,81218
571,406	23980,87033
571,648	23615,62009
571,891	23737,36446
572,133	23354,7558
572,375	23725,76953
572,617	23660,06583
572,859	24021,45706
573,101	23198,24649
573,343	23501,61013
573,585	23509,33949
573,827	24044,64981
574,069	23752,82445
574,312	23631,0794
574,554	23420,45301
574,795	23304,51756
575,037	23393,40107
575,279	23406,92701
575,521	23476,48986
575,763	23650,40365
576,005	23542,18946
576,247	23675,52538
576,489	23279,39869
576,731	23700,64734
576,973	23022,42183
577,214	23857,1818
577,456	23491,94846
577,698	23524,79826
577,94	22997,30452
578,181	23536,39238
578,423	23540,2571
578,665	23055,26771
578,907	23281,3309
579,148	23395,33334
579,39	23171,19611
579,632	23663,93071
579,873	23517,06886
580,115	23762,48699
580,356	23370,21385
580,598	23760,55448
580,839	23111,29941
581,081	23289,05977
581,323	23488,08381
581,564	23381,80744
581,806	23422,3853
582,047	23526,73061
582,288	23039,8108
582,53	23196,31432
582,771	23329,63659
583,013	23430,11447
583,254	23138,34944
583,495	23528,66296
583,737	23538,32474
583,978	23511,27183
584,219	23275,53426
584,461	23814,66533
584,702	23128,6887
584,943	23426,24988
585,184	23466,82826
585,426	23812,73278
585,667	23205,9752
585,908	23503,54247
586,149	23180,85694
586,39	23070,72467
586,631	23393,40107
586,873	23777,94713
587,114	23196,31432
587,355	23406,92701
587,596	23362,48482
587,837	23265,87321
588,078	23062,99618
588,319	23194,38214
588,56	23032,08236
588,801	23134,48514
589,042	22502,70473
589,283	23064,9283
589,524	22400,30969
589,765	22601,2363
590,005	22807,96207
590,246	22614,76029
590,487	22657,26436
590,728	22367,46605
590,969	22815,69023
591,21	23014,69341
591,45	22350,07825
591,691	22607,03229
591,932	22044,82495
592,173	22013,91297
592,413	22303,7108
592,654	22133,69653
592,895	21986,86492
593,135	22448,60919
593,376	21988,79692
593,617	22663,06038
593,857	21948,22474
594,098	21955,95279
594,338	22089,2608
594,579	22156,88035
594,819	21683,53474
595,06	21820,71102
595,3	21731,83657
595,541	21700,92344
595,781	21395,64658
596,022	21521,23751
596,262	21915,38047
596,503	21855,48768
596,743	21565,67654
596,983	22255,41136
597,224	22089,2608
597,464	22514,29665
597,704	21812,98285
597,945	22630,2163
598,185	21726,04037
598,425	22172,33621
598,666	22106,6487
598,906	21888,33217
599,146	22017,77697
599,386	21882,53609
599,626	21538,62674
599,867	21946,29273
600,107	21685,46682
600,347	22141,42447
600,587	21984,93291
600,827	21855,48768
601,067	21583,06562
601,307	22272,79916
601,547	21438,15468
601,787	22058,34891
602,027	21828,43918
602,267	22278,59509
602,507	21380,18897
602,747	22164,60828
602,987	21882,53609
603,227	22634,0803
603,467	22054,48492
603,707	22282,45905
603,947	22064,1449
604,187	22301,77882
604,426	22185,86009
604,666	22201,31594
604,906	22531,68454
605,146	22690,10853
605,386	22297,91487
605,625	22703,63263
605,865	22062,2129
606,105	22858,19525
606,344	22496,90877
606,584	23300,6531
606,824	23685,18765
607,063	24933,91883
607,303	26319,21114
607,543	27789,80087
607,782	29187,41439
608,022	30621,15149
608,261	31199,91948
608,501	31660,24857
608,74	31274,01401
608,98	30580,2509
609,219	29949,57657
609,459	29410,91198
609,698	27838,28371
609,938	26867,24514
610,177	26367,61143
610,416	25906,93297
610,656	25165,98298
610,895	25918,54426
611,134	26146,92492
611,374	27559,0641
611,613	28969,82124
611,852	31632,92998
612,092	34142,52378
612,331	37217,67699
612,57	39458,35203
612,809	42291,26974
613,049	42095,31345
613,288	42553,39143
613,527	41773,63023
613,766	41055,40493
614,005	38902,99746
614,244	37334,16973
614,483	35127,95797
614,722	33180,63111
614,961	31394,9266
615,2	29675,32403
615,439	28251,48454
615,678	26816,88226
615,917	25376,80871
616,156	24551,09114
616,395	23329,63659
616,634	23221,43267
616,873	22313,37069
617,112	21930,83661
617,351	21362,7991
617,59	20868,11619
617,829	20721,24048
618,068	21090,34679
618,306	20670,99148
618,545	21225,6095
618,784	20212,89748
619,023	20170,36845
619,261	20398,46718
619,5	20268,95693
619,739	19719,88075
619,977	19870,70201
620,216	19242,17403
620,455	19174,4687
620,693	18741,0632
620,932	19046,7856
621,171	18874,585
621,409	18595,91229
621,648	18154,52797
621,886	18216,48851
622,125	18307,48587
622,363	18109,99136
622,602	17865,97052
622,84	18187,445
623,079	17865,97052
623,317	18309,4219
623,556	17927,95019
623,794	18018,97522
624,032	18160,33694
624,271	18104,18208
624,509	17931,82378
624,747	18286,18938
624,986	18568,81526
625,224	18212,61609
625,462	18468,16299
625,7	18206,80743
625,939	18574,62182
626,177	17794,30121
626,415	18220,36091
626,653	18274,57291
626,891	18139,03721
627,13	18218,42471
627,368	18491,3913
627,606	19129,9746
627,844	19365,96867
628,082	20125,9052
628,32	20899,0363
628,558	22898,76847
628,796	25220,13685
629,034	29160,21128
629,272	33799,47315
629,51	39402,78217
629,748	44684,60941
629,986	49841,50458
630,224	52109,61932
630,462	54937,43533
630,7	55723,07889
630,938	55193,43368
631,175	52897,75828
631,413	50079,67039
631,651	47193,44184
631,889	43012,11258
632,127	40028,39297
632,364	36897,97482
632,602	34283,73549
632,84	31951,08306
633,078	29996,27018
633,315	30389,41984
633,553	31164,82555
633,791	33147,3609
634,028	34927,56367
634,266	37988,29604
634,503	39301,58541
634,741	40169,54186
634,979	39186,52979
635,216	38421,63875
635,454	36042,62153
635,691	33601,59405
635,929	31527,5713
636,166	29129,12341
636,404	26253,39049
636,641	24091,03604
636,878	21768,54572
637,116	20199,36563
637,353	18717,84037
637,591	17207,16407
637,828	15443,04709
638,065	14464,88434
638,302	13588,47832
638,54	12868,8671
638,777	12122,97999
639,014	12099,53373
639,252	11274,4207
639,489	10955,41383
639,726	10524,59095
639,963	10698,91422
640,2	10216,95988
640,437	9905,26041
640,675	9744,45206
640,912	9948,39748
641,149	9479,62288
641,386	9630,68626
641,623	9332,45132
641,86	9507,09143
642,097	8882,89759
642,334	9002,67518
642,571	8916,28021
642,808	8983,04086
643,045	8713,99775
643,282	8782,74069
643,519	8448,788
643,756	8637,39107
643,993	8592,20914
644,229	8533,27218
644,466	8562,74123
644,703	8596,13811
644,94	8737,56747
645,177	8755,24427
645,413	8922,1711
645,65	9677,76409
645,887	9973,88624
646,124	11098,3025
646,36	11931,47513
646,597	12788,85627
646,834	13241,45781
647,07	13904,13078
647,307	13913,8705
647,544	13861,27413
647,78	13582,63133
648,017	13192,70273
648,253	12388,63936
648,49	12058,50055
648,726	11260,72444
648,963	10679,32975
649,199	10013,09779
649,436	9715,03171
649,672	9116,54372
649,909	8810,23609
650,145	8295,51433
650,382	8173,66033
650,618	8016,4024
650,854	7825,68736
651,091	7786,35936
651,327	7890,57461
651,563	7735,23029
651,8	7432,32843
652,036	7570,02375
652,272	7290,67754
652,508	7211,97344
652,745	7040,77002
652,981	6845,91681
653,217	6883,31574
653,453	6708,11982
653,689	6676,62088
653,925	6747,4922
654,161	6481,70122
654,398	6562,42964
654,634	6231,60439
654,87	6141,00535
655,106	6117,36974
655,342	6066,15773
655,578	5910,53962
655,814	5942,05869
656,05	5865,22966
656,286	5987,36605
656,522	5949,93834
656,757	5638,65773
656,993	5713,52897
657,229	5502,69763
657,465	5465,25721
657,701	5429,78651
657,937	5289,86664
658,173	5205,12068
658,408	5246,50877
658,644	5049,41382
658,88	5291,83743
659,116	5088,83457
659,351	5080,95049
659,587	4873,98141
659,823	4960,71407
660,058	4915,37702
660,294	4747,81804
660,53	4838,49876
660,765	4848,35511
661,001	4454,06512
661,236	4842,4413
661,472	4481,66767
661,707	4475,75287
661,943	4584,18861
662,178	4544,75802
662,414	4264,78212
662,649	4373,22724
662,885	4318,01939
663,12	4286,47151
663,356	4128,72655
663,591	4174,07915
663,826	4164,21995
664,062	4105,06404
664,297	4010,41209
664,532	4097,17649
664,768	4034,07536
665,003	3870,4008
665,238	4018,29987
665,474	3813,21138
665,709	3809,26725
665,944	3825,04375
666,179	3677,1363
666,414	3848,70838
666,649	3683,05271
666,885	3712,63463
667,12	3602,1943
667,355	3931,53324
667,59	3720,5231
667,825	3716,57887
668,06	3677,1363
668,295	3917,72924
668,53	3852,65246
668,765	3621,91602
669	3714,60675
669,235	3663,3313
669,47	3519,36206
669,705	3690,94125
669,94	3481,8898
670,175	3539,08417
670,409	3537,11196
670,644	3371,44344
670,879	3416,80566
671,114	3375,388
671,349	3898,00914
671,584	3174,21165
671,818	3276,77311
672,053	3138,70917
672,288	3211,68625
672,522	3154,48808
672,757	3150,54335
672,992	3257,0499
673,226	3195,9075
673,461	2929,63491
673,696	3101,2341
673,93	3071,64835
674,165	3038,11768
674,399	2921,74519
674,634	2732,3895
674,868	2803,3984
675,103	2882,29646
675,337	2807,34332
675,572	2586,42505
675,806	2874,40669
676,041	2610,09511
676,275	2712,6647
676,51	2572,6175
676,744	2825,09544
676,978	2657,43505
677,213	2552,89239
677,447	2675,18748
677,681	2468,07404
677,916	2491,74433
678,15	2466,10151
678,384	2434,54104
678,618	2290,54548
678,853	2387,20019
679,087	2462,15645
679,321	2470,04656
679,555	2383,25511
679,789	2258,98463
680,023	2328,02391
680,257	2314,21608
680,491	2231,36884
680,726	2326,05136
680,96	2329,99646
681,194	2243,20419
681,428	2164,30175
681,662	2170,21945
681,896	2260,95719
682,13	2116,96014
682,364	2105,12472
682,597	2180,08227
682,831	2085,39901
683,065	2091,31673
683,299	1994,66052
683,533	2051,86526
683,767	2049,89268
684,001	2101,17958
684,234	1899,97656
684,468	1815,15528
684,702	2057,78298
684,936	1870,38777
685,169	1959,15407
685,403	1980,85247
685,637	1892,08622
685,87	1937,45567
686,104	1801,34715
686,338	1726,38863
686,571	1765,8405
686,805	1799,37456
687,038	1613,95062
687,272	1809,23751
687,506	1874,33294
687,739	1629,73141
687,973	1809,23751
688,206	1661,29297
688,44	1734,279
688,673	1744,14197
688,906	1677,07374
689,14	1560,69043
689,373	1653,40258
689,607	1661,29297
689,84	1702,71749
690,073	1550,82743
690,307	1641,567
690,54	1645,51219
690,773	1566,60823
691,006	1708,63527
691,24	1412,74522
691,473	1675,10115
691,706	1538,99182
691,939	1507,43019
692,173	1381,18354
692,406	1537,01922
692,639	1592,25203
692,872	1856,57966
693,105	1635,6492
693,338	1611,97802
693,571	1649,45739
693,804	1515,3206
694,037	1611,97802
694,27	1564,63563
694,503	1537,01922
694,736	1540,96442
694,969	1548,85483
695,202	1501,51239
695,435	1426,55346
695,668	1428,52606
695,901	1359,48487
696,134	1473,89595
696,367	1339,75881
696,599	1456,14252
696,832	1355,53966
697,065	1351,59445
697,298	1270,71754
697,53	1140,52524
697,763	1187,86792
697,996	1262,8271
698,229	1205,62142
698,461	1300,30666
698,694	1160,25136
698,927	1357,51227
699,159	1099,10036
699,392	1105,0182
699,624	1030,05883
699,857	1162,22397
700,09	1170,11442
700,322	1103,04559
700,555	1047,81237
700,787	1183,9227
701,02	988,63386
701,252	1004,41481
701,484	1053,73022
701,717	1148,41569
701,949	1256,90927
702,182	968,90768
702,414	1134,6074
702,646	899,86596
702,879	1156,30614
703,111	1083,31945
703,343	1034,00406
703,576	1057,67545
703,808	1004,41481
704,04	982,71601
704,272	913,67431
704,505	893,94809
704,737	984,68863
704,969	941,291
705,201	844,63249
705,433	1073,45637
705,665	850,55036
705,897	899,86596
706,129	992,5791
706,362	850,55036
706,594	1600,14243
706,826	809,12521
707,058	941,291
707,29	955,09934
707,522	939,31838
707,754	836,74199
707,985	734,16527
708,217	882,11235
708,449	838,71461
708,681	779,53579
708,913	783,48104
709,145	913,67431
709,377	848,57774
709,608	917,61955
709,84	852,52299
710,072	811,09784
710,304	749,94633
710,535	848,57774
710,767	787,4263
710,999	751,91896
711,231	698,65786
711,462	712,4663
711,694	682,87677
711,925	615,80703
712,157	818,98835
712,389	698,65786
712,62	700,6305
712,852	781,50841
713,083	767,70001
713,315	809,12521
713,546	694,71259
713,778	714,43894
714,009	716,41157
714,241	590,16266
714,472	742,0558
714,703	617,77967
714,935	635,53344
715,166	576,35414
715,397	647,36929
715,629	795,31682
715,86	641,45137
716,091	742,0558
716,323	625,67024
716,554	684,84941
716,785	596,08059
717,016	590,16266
717,248	574,38149
717,479	673,01359
717,71	485,61217
717,941	809,12521
718,172	619,75231
718,403	505,33873
718,634	744,02843
718,865	603,97117
719,096	615,80703
719,327	682,87677
719,558	456,0223
719,789	550,70972
720,02	465,8856
720,251	546,76442
720,482	576,35414
720,713	544,79177
720,944	513,22934
721,175	515,202
721,406	621,72495
721,637	471,80357
721,868	519,1473
722,098	542,81912
722,329	617,77967
722,56	438,26834
722,791	363,30697
723,021	402,76037
723,252	454,04964
723,483	400,78771
723,713	454,04964
723,944	459,96762
724,175	467,85825
724,405	446,15899
724,636	560,57296
724,867	485,61217
725,097	527,03791
725,328	598,05324
725,558	446,15899
725,789	381,06101
726,019	576,35414
726,25	607,91646
726,48	272,56366
726,711	509,28404
726,941	416,56904
727,171	530,98321
727,402	377,11567
727,632	347,52557
727,862	398,81504
728,093	529,01056
728,323	388,95169
728,553	485,61217
728,784	377,11567
729,014	343,58022
729,244	408,67837
729,474	530,98321
729,705	434,32302
729,935	359,36162
730,165	497,44811
730,395	375,143
730,625	278,48172
730,855	353,44359
731,085	469,83091
731,315	479,6942
731,545	367,25231
731,775	290,31784
732,005	383,03368
732,235	359,36162
732,465	379,08834
732,695	588,19001
732,925	454,04964
733,155	501,39342
733,385	300,18126
733,615	388,95169
733,845	201,54664
734,075	248,89137
734,305	331,74415
734,534	448,13165
734,764	440,24101
734,994	339,63486
735,224	521,11996
735,453	463,91294
735,683	327,7988
735,913	485,61217
736,142	357,38894
736,372	456,0223
736,602	481,66686
736,831	300,18126
737,061	386,97902
737,291	302,15394
737,52	256,78214
737,75	302,15394
737,979	349,49824
738,209	282,42709
738,438	369,22498
738,668	248,89137
738,897	357,38894
739,127	242,97329
739,356	355,41627
739,585	173,92878
739,815	276,50903
740,044	349,49824
740,273	422,48703
740,503	294,26321
740,732	313,99004
740,961	211,41015
741,191	329,77147
741,42	300,18126
741,649	392,89703
741,878	237,05521
742,108	296,23589
742,337	292,29052
742,566	266,64559
742,795	181,81961
743,024	246,91868
743,253	252,83676
743,482	274,53634
743,711	264,6729
743,94	164,06524
744,169	341,60754
744,398	274,53634
744,627	276,50903
744,856	241,0006
745,085	339,63486
745,314	258,75483
745,543	173,92878
745,772	337,66219
746,001	268,61828
746,23	171,95607
746,459	241,0006
746,687	136,44726
746,916	225,21903
747,145	195,62854
747,374	248,89137
747,603	154,20169
747,831	203,51934
748,06	237,05521
748,289	162,09253
748,517	225,21903
748,746	312,01735
748,975	367,25231
749,203	235,08251
749,432	166,03795
749,66	209,43745
749,889	217,32824
750,118	169,98336
750,346	225,21903
750,575	337,66219
750,803	288,34515
751,031	217,32824
751,26	485,61217
751,488	260,72752
751,717	158,14711
751,945	181,81961
752,174	181,81961
752,402	177,87419
752,63	396,84237
752,859	239,0279
753,087	164,06524
753,315	152,22897
753,543	134,47455
753,772	164,06524
754	175,90149
754,228	189,71042
754,456	377,11567
754,684	223,24634
754,913	158,14711
755,141	171,95607
755,369	144,33812
755,597	205,49204
755,825	136,44726
756,053	191,68313
756,281	166,03795
756,509	211,41015
756,737	148,28355
756,965	266,64559
757,193	128,5564
757,421	187,73772
757,649	205,49204
757,877	158,14711
758,105	213,38285
758,332	104,88376
758,56	213,38285
758,788	310,04467
759,016	199,57394
759,244	223,24634
759,472	152,22897
759,699	254,80945
759,927	160,11982
760,155	215,35554
760,382	120,66553
760,61	278,48172
760,838	290,31784
761,065	223,24634
761,293	160,11982
761,521	258,75483
761,748	219,30094
761,976	114,74737
762,203	53,59282
762,431	104,88376
762,658	67,40195
762,886	95,02014
763,113	91,07469
763,341	126,58368
763,568	128,5564
763,796	63,45649
764,023	89,10197
764,25	158,14711
764,478	89,10197
764,705	128,5564
764,932	231,13712
765,16	49,64735
765,387	231,13712
765,614	160,11982
765,842	195,62854
766,069	246,91868
766,296	183,79231
766,523	128,5564
766,75	77,2656
766,978	43,72914
767,205	120,66553
767,432	242,97329
767,659	231,13712
767,886	138,41998
768,113	248,89137
768,34	132,50183
768,567	158,14711
768,794	148,28355
769,021	31,8927
769,248	95,02014
769,475	166,03795
769,702	96,99287
769,929	173,92878
770,156	112,77465
770,383	120,66553
770,609	65,42922
770,836	-33,20802
771,063	160,11982
771,29	96,99287
771,517	179,8469
771,743	132,50183
771,97	67,40195
772,197	33,86544
772,424	33,86544
772,65	43,72914
772,877	256,78214
773,104	118,69281
773,33	108,82921
773,557	108,82921
773,783	79,23833
774,01	59,51102
774,236	207,46475
774,463	256,78214
774,69	173,92878
774,916	41,7564
775,143	134,47455
775,369	160,11982
775,595	87,12924
775,822	53,59282
776,048	168,01066
776,275	223,24634
776,501	89,10197
776,727	85,15651
776,954	27,94722
777,18	100,93832
777,406	14,13802
777,633	73,32014
777,859	146,31084
778,085	71,34741
778,311	315,96272
778,537	189,71042
778,764	41,7564
778,99	63,45649
779,216	179,8469
779,442	29,91996
779,668	140,39269
779,894	231,13712
780,12	-33,20802
780,346	205,49204
780,572	87,12924
780,798	201,54664
781,024	89,10197
781,25	79,23833
781,476	93,04742
781,702	93,04742
781,928	35,83818
782,154	156,1744
782,38	152,22897
782,606	201,54664
782,831	87,12924
783,057	185,76502
783,283	142,36541
783,509	179,8469
783,735	189,71042
783,96	33,86544
784,186	43,72914
784,412	179,8469
784,637	177,87419
784,863	148,28355
785,089	128,5564
785,314	130,52912
785,54	79,23833
785,766	134,47455
785,991	221,27364
786,217	-5,58946
786,442	47,67461
786,668	179,8469
786,893	187,73772
787,119	199,57394
787,344	77,2656
787,57	175,90149
787,795	319,90808
788,02	114,74737
788,246	61,48375
788,471	12,16527
788,696	140,39269
788,922	110,80193
789,147	102,91104
789,372	146,31084
789,598	233,10982
789,823	181,81961
790,048	148,28355
790,273	120,66553
790,499	225,21903
790,724	166,03795
790,949	148,28355
791,174	173,92878
791,399	-21,37148
791,624	217,32824
791,849	179,8469
792,074	229,16443
792,299	294,26321
792,524	179,8469
792,749	201,54664
792,974	71,34741
793,199	140,39269
793,424	286,37247
793,649	205,49204
793,874	130,52912
794,099	93,04742
794,324	166,03795
794,549	69,37468
794,774	96,99287
794,998	197,60124
795,223	201,54664
795,448	69,37468
795,673	130,52912
795,897	203,51934
796,122	148,28355
796,347	39,78366
796,571	142,36541
796,796	241,0006
797,021	95,02014
797,245	225,21903
797,47	207,46475
797,695	124,61096
797,919	55,56555
798,144	65,42922
798,368	209,43745
798,593	215,35554
798,817	142,36541
799,042	164,06524
799,266	175,90149
799,491	166,03795
799,715	164,06524
799,939	89,10197
800,164	237,05521
800,388	140,39269
800,612	116,72009
800,837	142,36541
801,061	286,37247
801,285	156,1744
801,51	130,52912
801,734	142,36541
801,958	41,7564
802,182	29,91996
802,406	241,0006
802,631	98,96559
802,855	124,61096
803,079	231,13712
803,303	47,67461
803,527	87,12924
803,751	244,94599
803,975	87,12924
804,199	-13,48046
804,423	81,21106
804,647	128,5564
804,871	152,22897
805,095	81,21106
805,319	120,66553
805,543	164,06524
805,767	112,77465
805,991	156,1744
806,215	199,57394
806,438	148,28355
806,662	47,67461
806,886	164,06524
807,11	55,56555
807,334	140,39269
807,557	-35,18077
807,781	73,32014
808,005	59,51102
808,228	14,13802
808,452	4,27429
808,676	173,92878
808,899	128,5564
809,123	110,80193
809,347	134,47455
809,57	71,34741
809,794	254,80945
810,017	239,0279
810,241	160,11982
810,464	171,95607
810,688	144,33812
810,911	156,1744
811,135	116,72009
811,358	29,91996
811,581	12,16527
811,805	53,59282
812,028	51,62008
812,251	35,83818
812,475	-7,56221
812,698	95,02014
812,921	31,8927
813,145	79,23833
813,368	59,51102
813,591	14,13802
813,814	22,029
814,038	100,93832
814,261	112,77465
814,484	31,8927
814,707	142,36541
814,93	-23,34423
815,153	79,23833
815,376	85,15651
815,599	104,88376
815,822	77,2656
816,045	136,44726
816,268	14,13802
816,491	221,27364
816,714	49,64735
816,937	-23,34423
817,16	-84,49992
817,383	-82,52715
817,606	61,48375
817,829	148,28355
818,052	-29,2625
818,274	100,93832
818,497	106,85648
818,72	-27,28974
818,943	-102,2549
819,166	77,2656
819,388	83,18379
819,611	67,40195
819,834	0,32879
820,056	96,99287
820,279	27,94722
820,502	118,69281
820,724	67,40195
820,947	77,2656
821,169	171,95607
821,392	154,20169
821,614	160,11982
821,837	130,52912
822,06	173,92878
822,282	-50,96286
822,504	233,10982
822,727	45,70187
822,949	146,31084
823,172	223,24634
823,394	-7,56221
823,616	35,83818
823,839	-3,61671
824,061	166,03795
824,283	49,64735
824,506	77,2656
824,728	4,27429
824,95	169,98336
825,172	112,77465
825,395	81,21106
825,617	-27,28974
825,839	87,12924
826,061	154,20169
826,283	112,77465
826,505	140,39269
826,728	63,45649
826,95	132,50183
827,172	130,52912
827,394	175,90149
827,616	-35,18077
827,838	33,86544
828,06	67,40195
828,282	67,40195
828,504	41,7564
828,726	51,62008
828,947	89,10197
829,169	106,85648
829,391	79,23833
829,613	77,2656
829,835	59,51102
830,057	22,029
830,278	146,31084
830,5	89,10197
830,722	102,91104
830,944	248,89137
831,165	67,40195
831,387	20,05625
831,609	-96,33657
831,83	-25,31699
832,052	102,91104
832,274	197,60124
832,495	252,83676
832,717	-74,63606
832,938	43,72914
833,16	18,08351
833,381	-13,48046
833,603	18,08351
833,824	106,85648
834,046	27,94722
834,267	179,8469
834,489	-1,64396
834,71	-52,93562
834,931	169,98336
835,153	-23,34423
835,374	98,96559
835,595	-74,63606
835,817	49,64735
836,038	146,31084
836,259	53,59282
836,481	79,23833
836,702	-39,12629
836,923	-80,55437
837,144	-114,09158
837,365	130,52912
837,587	156,1744
837,808	61,48375
838,029	142,36541
838,25	67,40195
838,471	-27,28974
838,692	51,62008
838,913	-19,39872
839,134	195,62854
839,355	87,12924
839,576	83,18379
839,797	126,58368
840,018	162,09253
840,239	241,0006
840,46	-37,15353
840,681	47,67461
840,901	168,01066
841,122	-15,45322
841,343	39,78366
841,564	61,48375
841,785	-52,93562
842,005	-33,20802
842,226	-25,31699
842,447	18,08351
842,668	-47,01734
842,888	-17,42597
843,109	95,02014
843,33	158,14711
843,55	37,81092
843,771	89,10197
843,991	24,00174
844,212	140,39269
844,433	73,32014
844,653	138,41998
844,874	100,93832
845,094	-45,04457
845,315	-15,45322
845,535	45,70187
845,755	-11,50771
845,976	47,67461
846,196	49,64735
846,417	-1,64396
846,637	39,78366
846,857	20,05625
847,078	49,64735
847,298	49,64735
847,518	122,63825
847,738	-68,71775
847,959	71,34741
848,179	73,32014
848,399	18,08351
848,619	55,56555
848,839	18,08351
849,06	-45,04457
849,28	112,77465
849,5	171,95607
849,72	2,30154
849,94	33,86544
850,16	45,70187
850,38	2,30154
850,6	75,29287
850,82	239,0279
851,04	6,24704
851,26	0,32879
851,48	-21,37148
851,7	-11,50771
851,92	37,81092
852,14	39,78366
852,359	41,7564
852,579	-100,28212
852,799	173,92878
853,019	12,16527
853,239	41,7564
853,458	96,99287
853,678	2,30154
853,898	57,53829
854,117	79,23833
854,337	37,81092
854,557	65,42922
854,776	73,32014
854,996	41,7564
855,216	-29,2625
855,435	43,72914
855,655	164,06524
855,874	85,15651
856,094	-17,42597
856,313	25,97448
856,533	24,00174
856,752	98,96559
856,972	-125,92829
857,191	59,51102
857,411	85,15651
857,63	-37,15353
857,849	-58,85392
858,069	25,97448
858,288	-15,45322
858,507	130,52912
858,727	18,08351
858,946	71,34741
859,165	-104,22768
859,384	2,30154
859,604	31,8927
859,823	-48,9901
860,042	759,80948
860,261	98,96559
860,48	132,50183
860,699	93,04742
860,918	87,12924
861,137	219,30094
861,356	-19,39872
861,576	-15,45322
861,795	47,67461
862,014	93,04742
862,233	118,69281
862,451	16,11076
862,67	96,99287
862,889	69,37468
863,108	16,11076
863,327	2,30154
863,546	49,64735
863,765	152,22897
863,984	47,67461
864,202	73,32014
864,421	-60,82668
864,64	-37,15353
864,859	-45,04457
865,077	37,81092
865,296	10,19253
865,515	116,72009
865,733	29,91996
865,952	18,08351
866,171	-62,79945
866,389	10,19253
866,608	-114,09158
866,826	-23,34423
867,045	-13,48046
867,264	41,7564
867,482	-33,20802
867,701	-66,74498
867,919	73,32014
868,137	144,33812
868,356	108,82921
868,574	-39,12629
868,793	95,02014
869,011	112,77465
869,229	18,08351
869,448	-7,56221
869,666	-29,2625
869,884	-56,88115
870,103	25,97448
870,321	37,81092
870,539	-108,17324
870,757	160,11982
870,975	146,31084
871,194	45,70187
871,412	4,27429
871,63	183,79231
871,848	49,64735
872,066	51,62008
872,284	-50,96286
872,502	91,07469
872,72	57,53829
872,938	14,13802
873,156	79,23833
873,374	24,00174
873,592	-78,5816
873,81	29,91996
874,028	79,23833
874,246	120,66553
874,464	175,90149
874,682	132,50183
874,9	31,8927
875,117	116,72009
875,335	116,72009
875,553	152,22897
875,771	8,21978
875,988	45,70187
876,206	43,72914
876,424	20,05625
876,642	14,13802
876,859	81,21106
877,077	67,40195
877,294	-66,74498
877,512	-66,74498
877,73	173,92878
877,947	-72,66329
878,165	24,00174
878,382	4,27429
878,6	12,16527
878,817	65,42922
879,035	31,8927
879,252	45,70187
879,47	59,51102
879,687	47,67461
879,904	-33,20802
880,122	41,7564
880,339	-23,34423
880,556	-74,63606
880,774	-37,15353
880,991	91,07469
881,208	148,28355
881,426	120,66553
881,643	27,94722
881,86	183,79231
882,077	-39,12629
882,294	114,74737
882,512	85,15651
882,729	8,21978
882,946	61,48375
883,163	-17,42597
883,38	-23,34423
883,597	31,8927
883,814	77,2656
884,031	16,11076
884,248	75,29287
884,465	57,53829
884,682	-13,48046
884,899	4,27429
885,116	-21,37148
885,333	31,8927
885,55	10,19253
885,766	61,48375
885,983	63,45649
886,2	49,64735
886,417	-100,28212
886,634	108,82921
886,85	126,58368
887,067	-60,82668
887,284	93,04742
887,501	18,08351
887,717	39,78366
887,934	10,19253
888,151	49,64735
888,367	51,62008
888,584	49,64735
888,8	144,33812
889,017	45,70187
889,234	77,2656
889,45	0,32879
889,667	73,32014
889,883	175,90149
890,099	55,56555
890,316	75,29287
890,532	132,50183
890,749	-52,93562
890,965	10,19253
891,181	14,13802
891,398	43,72914
891,614	47,67461
891,83	57,53829
892,047	152,22897
892,263	-62,79945
892,479	-31,23526
892,695	-17,42597
892,912	73,32014
893,128	61,48375
893,344	160,11982
893,56	25,97448
893,776	31,8927
893,992	132,50183
894,209	71,34741
894,425	93,04742
894,641	29,91996
894,857	-13,48046
895,073	75,29287
895,289	77,2656
895,505	110,80193
895,721	-82,52715
895,937	65,42922
896,152	75,29287
896,368	95,02014
896,584	29,91996
896,8	146,31084
897,016	96,99287
897,232	-118,03715
897,447	85,15651
897,663	-47,01734
897,879	4,27429
898,095	-17,42597
898,31	120,66553
898,526	-3,61671
898,742	69,37468
898,957	39,78366
899,173	122,63825
899,389	-60,82668
899,604	-54,90839
899,82	-62,79945
900,035	25,97448
900,251	134,47455
900,466	325,82612
900,682	69,37468
900,897	132,50183
901,113	77,2656
901,328	-72,66329
901,544	-37,15353
901,759	95,02014
901,974	12,16527
902,19	-62,79945
902,405	-78,5816
902,62	-17,42597
902,836	175,90149
903,051	-15,45322
903,266	-21,37148
903,482	2,30154
903,697	24,00174
903,912	120,66553
904,127	6,24704
904,342	120,66553
904,557	164,06524
904,773	89,10197
904,988	33,86544
905,203	47,67461
905,418	45,70187
905,633	-58,85392
905,848	53,59282
906,063	10,19253
906,278	-17,42597
906,493	27,94722
906,708	-39,12629
906,923	47,67461
907,138	-37,15353
907,352	47,67461
907,567	-39,12629
907,782	-21,37148
907,997	77,2656
908,212	33,86544
908,427	81,21106
908,641	25,97448
908,856	53,59282
909,071	47,67461
909,285	93,04742
909,5	116,72009
909,715	49,64735
909,929	59,51102
910,144	-56,88115
910,359	51,62008
910,573	-3,61671
910,788	69,37468
911,002	-7,56221
911,217	-78,5816
911,431	95,02014
911,646	12,16527
911,86	12,16527
912,075	168,01066
912,289	-45,04457
912,504	-37,15353
912,718	106,85648
912,932	134,47455
913,147	-21,37148
913,361	14,13802
913,575	-56,88115
913,79	213,38285
914,004	53,59282
914,218	152,22897
914,432	-39,12629
914,646	110,80193
914,861	-37,15353
915,075	122,63825
915,289	25,97448
915,503	-116,06437
915,717	61,48375
915,931	100,93832
916,145	98,96559
916,359	235,08251
916,573	124,61096
916,787	102,91104
917,001	122,63825
917,215	35,83818
917,429	20,05625
917,643	24,00174
917,857	112,77465
918,071	0,32879
918,285	185,76502
918,499	16,11076
918,713	10,19253
918,926	-64,77222
919,14	49,64735
919,354	169,98336
919,568	49,64735
919,781	61,48375
919,995	31,8927
920,209	-60,82668
920,422	118,69281
920,636	-64,77222
920,85	43,72914
921,063	2,30154
921,277	89,10197
921,49	-88,44547
921,704	118,69281
921,917	31,8927
922,131	53,59282
922,344	116,72009
922,558	-74,63606
922,771	116,72009
922,985	203,51934
923,198	-15,45322
923,412	24,00174
923,625	47,67461
923,838	8,21978
924,052	91,07469
924,265	69,37468
924,478	-33,20802
924,691	187,73772
924,905	144,33812
925,118	-11,50771
925,331	4,27429
925,544	-43,07181
925,757	-47,01734
925,971	77,2656
926,184	24,00174
926,397	63,45649
926,61	63,45649
926,823	41,7564
927,036	106,85648
927,249	-1,64396
927,462	18,08351
927,675	18,08351
927,888	-9,53496
928,101	-19,39872
928,314	75,29287
928,527	81,21106
928,74	6,24704
928,953	201,54664
929,165	-35,18077
929,378	95,02014
929,591	156,1744
929,804	-7,56221
930,017	24,00174
930,229	114,74737
930,442	29,91996
930,655	-15,45322
930,867	100,93832
931,08	33,86544
931,293	114,74737
931,505	-39,12629
931,718	-17,42597
931,931	27,94722
932,143	73,32014
932,356	4,27429
932,568	-68,71775
932,781	-27,28974
932,993	-27,28974
933,206	-72,66329
933,418	-31,23526
933,631	183,79231
933,843	27,94722
934,055	59,51102
934,268	-47,01734
934,48	93,04742
934,692	10,19253
934,905	79,23833
935,117	-11,50771
935,329	89,10197
935,541	102,91104
935,754	156,1744
935,966	124,61096
936,178	35,83818
936,39	108,82921
936,602	-84,49992
936,814	71,34741
937,027	-86,47269
937,239	12,16527
937,451	-27,28974
937,663	144,33812
937,875	-17,42597
938,087	-1,64396
938,299	-90,41824
938,511	63,45649
938,723	22,029
938,935	16,11076
939,146	110,80193
939,358	83,18379
939,57	96,99287
939,782	8,21978
939,994	-52,93562
940,206	112,77465
940,417	110,80193
940,629	-64,77222
940,841	37,81092
941,053	49,64735
941,264	124,61096
941,476	108,82921
941,688	27,94722
941,899	106,85648
942,111	6,24704
942,323	0,32879
942,534	16,11076
942,746	102,91104
942,957	12,16527
943,169	75,29287
943,38	-92,39102
943,592	-9,53496
943,803	-108,17324
944,015	110,80193
944,226	-62,79945
944,437	112,77465
944,649	43,72914
944,86	-21,37148
945,071	152,22897
945,283	85,15651
945,494	-25,31699
945,705	8,21978
945,917	152,22897
946,128	49,64735
946,339	122,63825
946,55	31,8927
946,761	136,44726
946,973	29,91996
947,184	-1,64396
947,395	83,18379
947,606	-25,31699
947,817	116,72009
948,028	95,02014
948,239	55,56555
948,45	27,94722
948,661	142,36541
948,872	51,62008
949,083	136,44726
949,294	-41,09905
949,505	16,11076
949,716	168,01066
949,927	16,11076
950,138	77,2656
950,348	55,56555
950,559	116,72009
950,77	77,2656
950,981	29,91996
951,191	71,34741
951,402	168,01066
951,613	95,02014
951,824	-114,09158
952,034	35,83818
952,245	33,86544
952,456	57,53829
952,666	29,91996
952,877	146,31084
953,087	-15,45322
953,298	104,88376
953,508	-1,64396
953,719	4,27429
953,929	91,07469
954,14	-41,09905
954,35	-13,48046
954,561	106,85648
954,771	122,63825
954,982	-7,56221
955,192	91,07469
955,402	199,57394
955,613	185,76502
955,823	4,27429
956,033	124,61096
956,243	75,29287
956,454	53,59282
956,664	-35,18077
956,874	150,25626
957,084	35,83818
957,294	-31,23526
957,505	-11,50771
957,715	31,8927
957,925	100,93832
958,135	134,47455
958,345	85,15651
958,555	51,62008
958,765	-45,04457
958,975	4,27429
959,185	33,86544
959,395	166,03795
959,605	110,80193
959,815	57,53829
960,025	35,83818
960,235	45,70187
960,445	-29,2625
960,654	-25,31699
960,864	128,5564
961,074	-62,79945
961,284	-70,69052
961,494	100,93832
961,703	-15,45322
961,913	-1,64396
962,123	-80,55437
962,332	69,37468
962,542	-66,74498
962,752	6,24704
962,961	177,87419
963,171	63,45649
963,38	126,58368
963,59	24,00174
963,8	83,18379
964,009	24,00174
964,219	53,59282
964,428	-108,17324
964,637	53,59282
964,847	67,40195
965,056	25,97448
965,266	95,02014
965,475	100,93832
965,684	47,67461
965,894	43,72914
966,103	93,04742
966,312	-84,49992
966,522	-137,76502
966,731	-45,04457
966,94	35,83818
967,149	158,14711
967,359	18,08351
967,568	24,00174
967,777	-33,20802
967,986	12,16527
968,195	187,73772
968,404	-17,42597
968,613	10,19253
968,822	59,51102
969,031	-66,74498
969,24	114,74737
969,449	-94,36379
969,658	18,08351
969,867	122,63825
970,076	39,78366
970,285	55,56555
970,494	-9,53496
970,703	25,97448
970,912	-70,69052
971,12	-84,49992
971,329	108,82921
971,538	35,83818
971,747	-17,42597
971,956	-5,58946
972,164	-1,64396
972,373	169,98336
972,582	91,07469
972,79	59,51102
972,999	-52,93562
973,208	27,94722
973,416	-47,01734
973,625	-54,90839
973,833	35,83818
974,042	29,91996
974,25	20,05625
974,459	65,42922
974,667	73,32014
974,876	95,02014
975,084	-23,34423
975,293	166,03795
975,501	-92,39102
975,709	29,91996
975,918	124,61096
976,126	22,029
976,334	53,59282
976,543	-127,90107
976,751	110,80193
976,959	-62,79945
977,168	-27,28974
977,376	63,45649
977,584	-58,85392
977,792	10,19253
978	116,72009
978,208	-78,5816
978,416	-5,58946
978,625	35,83818
978,833	69,37468
979,041	-19,39872
979,249	100,93832
979,457	69,37468
979,665	134,47455
979,873	16,11076
980,081	0,32879
980,289	-35,18077
980,496	43,72914
980,704	-80,55437
980,912	41,7564
981,12	2,30154
981,328	43,72914
981,536	-3,61671
981,743	79,23833
981,951	120,66553
982,159	-48,9901
982,367	-19,39872
982,574	20,05625
982,782	179,8469
982,99	183,79231
983,197	63,45649
983,405	-90,41824
983,613	-66,74498
983,82	-47,01734
984,028	-100,28212
984,235	69,37468
984,443	4,27429
984,65	233,10982
984,858	22,029
985,065	108,82921
985,273	-27,28974
985,48	-3,61671
985,687	43,72914
985,895	110,80193
986,102	35,83818
986,31	16,11076
986,517	-35,18077
986,724	95,02014
986,931	-56,88115
987,139	122,63825
987,346	33,86544
987,553	12,16527
987,76	22,029
987,967	31,8927
988,175	67,40195
988,382	10,19253
988,589	114,74737
988,796	87,12924
989,003	69,37468
989,21	67,40195
989,417	-21,37148
989,624	110,80193
989,831	25,97448
990,038	87,12924
990,245	87,12924
990,452	-17,42597
990,659	18,08351
990,866	116,72009
991,073	6,24704
991,279	45,70187
991,486	154,20169
991,693	-21,37148
991,9	-31,23526
992,107	31,8927
992,313	118,69281
992,52	-47,01734
992,727	33,86544
992,933	-33,20802
993,14	61,48375
993,347	-48,9901
993,553	29,91996
993,76	168,01066
993,966	24,00174
994,173	91,07469
994,38	193,65583
994,586	24,00174
994,793	81,21106
994,999	-1,64396
995,205	0,32879
995,412	27,94722
995,618	-84,49992
995,825	108,82921
996,031	8,21978
996,237	22,029
996,444	75,29287
996,65	37,81092
996,856	31,8927
997,063	65,42922
997,269	-39,12629
997,475	83,18379
997,681	43,72914
997,887	140,39269
998,094	81,21106
998,3	164,06524
998,506	154,20169
998,712	-7,56221
998,918	67,40195
999,124	136,44726
999,33	4,27429
999,536	24,00174
999,742	65,42922
999,948	-74,63606
1000,154	-17,42597
1000,36	114,74737
1000,566	22,029
1000,772	-33,20802
1000,978	87,12924
1001,184	98,96559
1001,389	35,83818
1001,595	75,29287
1001,801	146,31084
1002,007	-48,9901
1002,212	59,51102
1002,418	130,52912
1002,624	-35,18077
1002,83	-54,90839
1003,035	63,45649
1003,241	71,34741
1003,447	197,60124
1003,652	75,29287
1003,858	53,59282
1004,063	69,37468
1004,269	-21,37148
1004,474	183,79231
1004,68	51,62008
1004,885	51,62008
1005,091	24,00174
1005,296	-29,2625
1005,502	124,61096
1005,707	-7,56221
1005,912	8,21978
1006,118	116,72009
1006,323	41,7564
1006,528	134,47455
1006,734	104,88376
1006,939	-5,58946
1007,144	95,02014
1007,35	-9,53496
1007,555	-9,53496
1007,76	6,24704
1007,965	2,30154
1008,17	6,24704
1008,375	-66,74498
1008,581	-19,39872
1008,786	-43,07181
1008,991	-17,42597
1009,196	0,32879
1009,401	43,72914
1009,606	63,45649
1009,811	27,94722
1010,016	47,67461
1010,221	65,42922
1010,426	-31,23526
1010,63	65,42922
1010,835	-15,45322
1011,04	-108,17324
1011,245	148,28355
1011,45	-5,58946
1011,655	-45,04457
1011,859	124,61096
1012,064	29,91996
1012,269	12,16527
1012,474	-96,33657
1012,678	-5,58946
1012,883	-141,7106
1013,088	20,05625
1013,292	-7,56221
1013,497	39,78366
1013,702	-9,53496
1013,906	2,30154
1014,111	-3,61671
1014,315	-96,33657
1014,52	-56,88115
1014,724	71,34741
1014,929	124,61096
1015,133	31,8927
1015,338	-39,12629
1015,542	31,8927
1015,746	-88,44547
1015,951	166,03795
1016,155	-29,2625
1016,359	33,86544
1016,564	-72,66329
1016,768	12,16527
1016,972	18,08351
1017,176	-64,77222
1017,381	53,59282
1017,585	197,60124
1017,789	95,02014
1017,993	-13,48046
1018,197	-31,23526
1018,401	-15,45322
1018,606	156,1744
1018,81	81,21106
1019,014	-17,42597
1019,218	100,93832
1019,422	-5,58946
1019,626	106,85648
1019,83	-29,2625
1020,034	51,62008
1020,238	59,51102
1020,441	73,32014
1020,645	16,11076
1020,849	6,24704
1021,053	12,16527
1021,257	83,18379
1021,461	18,08351
1021,664	18,08351
1021,868	118,69281
1022,072	95,02014
1022,276	-11,50771
1022,479	156,1744
1022,683	41,7564
1022,887	25,97448
1023,09	-1,64396
1023,294	79,23833
1023,498	12,16527
1023,701	65,42922
1023,905	104,88376
1024,108	55,56555
1024,312	14,13802
1024,515	4,27429
1024,719	41,7564
1024,922	73,32014
1025,126	45,70187
1025,329	118,69281
1025,532	83,18379
1025,736	-33,20802
1025,939	22,029
1026,142	20,05625
1026,346	195,62854
1026,549	31,8927
1026,752	20,05625
1026,956	138,41998
1027,159	55,56555
1027,362	59,51102
1027,565	25,97448
1027,768	71,34741
1027,971	98,96559
1028,175	6,24704
1028,378	102,91104
1028,581	108,82921
1028,784	-56,88115
1028,987	59,51102
1029,19	-31,23526
1029,393	-48,9901
1029,596	-15,45322
1029,799	205,49204
1030,002	75,29287
1030,205	10,19253
1030,408	154,20169
1030,61	-108,17324
1030,813	65,42922
1031,016	20,05625
1031,219	104,88376
1031,422	-7,56221
1031,624	89,10197
1031,827	49,64735
1032,03	12,16527
1032,233	-84,49992
1032,435	41,7564
1032,638	258,75483
1032,841	128,5564
1033,043	71,34741
1033,246	73,32014
1033,448	-41,09905
1033,651	162,09253
1033,853	152,22897
1034,056	-17,42597
1034,258	89,10197
1034,461	47,67461
1034,663	16,11076
1034,866	-1,64396
1035,068	130,52912
1035,271	33,86544
1035,473	96,99287
1035,675	33,86544
1035,878	95,02014
1036,08	-66,74498
1036,282	-13,48046
1036,484	227,19173
1036,687	-45,04457
1036,889	57,53829
1037,091	39,78366
1037,293	65,42922
1037,495	24,00174
1037,698	45,70187
1037,9	53,59282
1038,102	140,39269
1038,304	144,33812
1038,506	160,11982
1038,708	-19,39872
1038,91	79,23833
1039,112	27,94722
1039,314	-9,53496
1039,516	100,93832
1039,718	24,00174
1039,92	77,2656
1040,122	-27,28974
1040,323	16,11076
1040,525	-19,39872
1040,727	57,53829
1040,929	-35,18077
1041,131	193,65583
1041,333	144,33812
1041,534	51,62008
1041,736	128,5564
1041,938	71,34741
1042,139	114,74737
1042,341	140,39269
1042,543	-3,61671
1042,744	195,62854
1042,946	22,029
1043,147	87,12924
1043,349	118,69281
1043,55	91,07469
1043,752	205,49204
1043,953	-74,63606
1044,155	85,15651
1044,356	-52,93562
1044,558	-7,56221
1044,759	2,30154
1044,961	142,36541
1045,162	43,72914
1045,363	156,1744
1045,565	-37,15353
1045,766	89,10197
1045,967	2,30154
1046,168	59,51102
1046,37	8,21978
1046,571	-29,2625
1046,772	-127,90107
1046,973	258,75483
1047,174	47,67461
1047,376	18,08351
1047,577	77,2656
1047,778	12,16527
1047,979	71,34741
1048,18	81,21106
1048,381	45,70187
1048,582	173,92878
1048,783	126,58368
1048,984	22,029
1049,185	124,61096
1049,386	181,81961
1049,587	77,2656
1049,788	148,28355
1049,988	55,56555
1050,189	98,96559
1050,39	22,029
1050,591	-19,39872
1050,792	102,91104
1050,992	25,97448
1051,193	-62,79945
1051,394	146,31084
1051,594	-31,23526
1051,795	45,70187
1051,996	18,08351
1052,196	14,13802
1052,397	-62,79945
1052,598	-17,42597
1052,798	-17,42597
