Data from Philips_4000K_7,3W_1535Lumen_250ms_1__0__15-23-04-612.txt Node

Date: Thu Dec 18 15:23:04 CET 2025
User: Stefan
Spectrometer: ?
Trigger mode: 0
Integration Time (sec): 2,500000E-1
Scans to average: 1
Electric dark correction enabled: true
Nonlinearity correction enabled: true
Boxcar width: 0
XAxis mode: Wavelengths
Number of Pixels in Spectrum: 3648
>>>>>Begin Spectral Data<<<<<
195,033	-319,59345
195,299	-319,59345
195,565	-319,59345
195,831	-384,69819
196,098	-347,21353
196,364	126,2549
196,63	19,72746
196,896	-3,9455
197,162	-5,91825
197,428	33,53665
197,694	-17,75476
197,96	-63,12824
198,226	39,45487
198,492	80,88227
198,757	-100,61092
199,023	-130,20266
199,289	21,70021
199,555	254,48067
199,821	21,70021
200,087	88,77318
200,353	71,01862
200,618	51,29129
200,884	238,69912
201,15	153,8729
201,416	1,97275
201,682	187,40894
201,947	209,10866
202,213	61,15496
202,479	82,855
202,744	-25,64578
203,01	118,36402
203,276	216,99946
203,541	-15,78201
203,807	-0
204,073	102,58225
204,338	108,50042
204,604	149,92748
204,869	92,71863
205,135	-9,86375
205,401	88,77318
205,666	55,23676
205,932	147,95476
206,197	213,05406
206,463	39,45487
206,728	175,5727
206,994	-49,31889
207,259	114,41858
207,524	171,62729
207,79	25,64569
208,055	69,04589
208,321	102,58225
208,586	142,03662
208,851	51,29129
209,117	159,79103
209,382	51,29129
209,647	41,42761
209,913	226,86295
210,178	138,09119
210,443	104,55497
210,708	11,83648
210,974	41,42761
211,239	173,59999
211,504	106,5277
211,769	183,46353
212,034	228,83564
212,3	199,24516
212,565	5,91824
212,83	59,18223
213,095	-9,86375
213,36	132,17305
213,625	13,80923
213,89	47,34582
214,155	27,61843
214,42	181,49082
214,685	-7,891
214,95	181,49082
215,215	108,50042
215,48	130,20033
215,745	258,42605
216,01	-37,48233
216,275	112,44586
216,54	102,58225
216,805	27,61843
217,07	39,45487
217,335	17,75472
217,6	159,79103
217,864	120,33674
218,129	216,99946
218,394	140,06391
218,659	45,37308
218,924	171,62729
219,188	57,2095
219,453	134,14576
219,718	216,99946
219,983	94,69136
220,247	35,50939
220,512	112,44586
220,777	203,19056
221,041	185,43623
221,306	282,09831
221,571	106,5277
221,835	211,08136
222,1	98,63681
222,364	130,20033
222,629	161,76374
222,894	71,01862
223,158	-0
223,423	59,18223
223,687	63,1277
223,952	3,9455
224,216	108,50042
224,481	258,42605
224,745	71,01862
225,009	45,37308
225,274	240,67182
225,538	134,14576
225,803	197,27245
226,067	76,93681
226,331	11,83648
226,596	19,72746
226,86	175,5727
227,124	226,86295
227,389	78,90954
227,653	189,38164
227,917	71,01862
228,181	96,66408
228,446	134,14576
228,71	29,59117
228,974	37,48213
229,238	159,79103
229,502	112,44586
229,767	29,59117
230,031	149,92748
230,295	122,30946
230,559	92,71863
230,823	136,11848
231,087	157,81832
231,351	349,16947
231,615	414,2676
231,879	39,45487
232,143	179,51812
232,407	155,84561
232,671	124,28218
232,935	149,92748
233,199	108,50042
233,463	149,92748
233,727	114,41858
233,991	55,23676
234,255	207,13596
234,519	177,54541
234,783	92,71863
235,047	47,34582
235,311	179,51812
235,574	72,99135
235,838	78,90954
236,102	51,29129
236,366	112,44586
236,63	110,47314
236,893	69,04589
237,157	116,3913
237,421	130,20033
237,684	215,02676
237,948	100,60953
238,212	31,56391
238,475	169,65458
238,739	67,07316
239,003	246,5899
239,266	256,45336
239,53	147,95476
239,794	27,61843
240,057	86,80045
240,321	175,5727
240,584	130,20033
240,848	15,78197
241,111	94,69136
241,375	163,73645
241,638	341,27876
241,902	134,14576
242,165	144,00934
242,429	96,66408
242,692	94,69136
242,955	37,48213
243,219	187,40894
243,482	171,62729
243,746	1,97275
244,009	124,28218
244,272	106,5277
244,536	110,47314
244,799	173,59999
245,062	41,42761
245,325	71,01862
245,589	169,65458
245,852	124,28218
246,115	266,31681
246,378	33,53665
246,641	199,24516
246,905	86,80045
247,168	47,34582
247,431	78,90954
247,694	57,2095
247,957	116,3913
248,22	222,91755
248,483	33,53665
248,746	84,82773
249,009	-33,53681
249,273	98,63681
249,536	100,60953
249,799	1,97275
250,062	86,80045
250,324	102,58225
250,587	106,5277
250,85	35,50939
251,113	17,75472
251,376	163,73645
251,639	147,95476
251,902	248,56259
252,165	295,90711
252,428	92,71863
252,691	264,34412
252,953	71,01862
253,216	165,70916
253,479	165,70916
253,742	-90,74704
254,005	-47,34613
254,267	72,99135
254,53	104,55497
254,793	203,19056
255,055	177,54541
255,318	207,13596
255,581	147,95476
255,843	124,28218
256,106	106,5277
256,369	161,76374
256,631	116,3913
256,894	47,34582
257,157	118,36402
257,419	78,90954
257,682	177,54541
257,944	220,94486
258,207	151,90019
258,469	49,31856
258,732	140,06391
258,994	27,61843
259,257	69,04589
259,519	124,28218
259,781	183,46353
260,044	71,01862
260,306	-11,8365
260,569	138,09119
260,831	90,74591
261,093	128,22761
261,356	183,46353
261,618	220,94486
261,88	27,61843
262,143	55,23676
262,405	33,53665
262,667	84,82773
262,929	124,28218
263,192	224,89025
263,454	21,70021
263,716	-5,91825
263,978	71,01862
264,24	153,8729
264,502	67,07316
264,765	169,65458
265,027	226,86295
265,289	222,91755
265,551	130,20033
265,813	90,74591
266,075	94,69136
266,337	161,76374
266,599	-1,97275
266,861	82,855
267,123	201,21786
267,385	155,84561
267,647	35,50939
267,909	86,80045
268,171	142,03662
268,433	-0
268,695	161,76374
268,957	114,41858
269,219	65,10043
269,48	203,19056
269,742	69,04589
270,004	71,01862
270,266	59,18223
270,528	100,60953
270,789	142,03662
271,051	185,43623
271,313	207,13596
271,575	181,49082
271,836	118,36402
272,098	104,55497
272,36	213,05406
272,621	203,19056
272,883	25,64569
273,145	120,33674
273,406	80,88227
273,668	76,93681
273,93	106,5277
274,191	92,71863
274,453	140,06391
274,714	140,06391
274,976	-0
275,237	149,92748
275,499	55,23676
275,76	-0
276,022	126,2549
276,283	151,90019
276,545	199,24516
276,806	25,64569
277,068	195,29975
277,329	144,00934
277,59	53,26403
277,852	33,53665
278,113	72,99135
278,374	130,20033
278,636	175,5727
278,897	63,1277
279,158	92,71863
279,42	116,3913
279,681	122,30946
279,942	226,86295
280,203	151,90019
280,464	39,45487
280,726	51,29129
280,987	-35,50957
281,248	90,74591
281,509	167,68187
281,77	238,69912
282,031	15,78197
282,292	165,70916
282,554	165,70916
282,815	61,15496
283,076	199,24516
283,337	171,62729
283,598	61,15496
283,859	120,33674
284,12	86,80045
284,381	49,31856
284,642	47,34582
284,903	78,90954
285,164	13,80923
285,424	147,95476
285,685	199,24516
285,946	-57,20995
286,207	140,06391
286,468	63,1277
286,729	-3,9455
286,99	242,64451
287,25	-59,18271
287,511	106,5277
287,772	29,59117
288,033	102,58225
288,294	86,80045
288,554	106,5277
288,815	165,70916
289,076	177,54541
289,336	33,53665
289,597	128,22761
289,858	256,45336
290,118	13,80923
290,379	63,1277
290,639	112,44586
290,9	108,50042
291,161	-43,40061
291,421	94,69136
291,682	41,42761
291,942	65,10043
292,203	55,23676
292,463	63,1277
292,724	17,75472
292,984	53,26403
293,245	301,82516
293,505	65,10043
293,766	45,37308
294,026	889,67407
294,286	86,80045
294,547	262,37143
294,807	69,04589
295,067	177,54541
295,328	134,14576
295,588	57,2095
295,848	179,51812
296,109	165,70916
296,369	74,96408
296,629	215,02676
296,889	226,86295
297,15	102,58225
297,41	250,53528
297,67	201,21786
297,93	41,42761
298,19	7,89099
298,45	222,91755
298,711	138,09119
298,971	173,59999
299,231	120,33674
299,491	144,00934
299,751	147,95476
300,011	165,70916
300,271	108,50042
300,531	144,00934
300,791	116,3913
301,051	23,67295
301,311	108,50042
301,571	126,2549
301,831	88,77318
302,091	51,29129
302,351	-41,42785
302,61	288,01637
302,87	-25,64578
303,13	100,60953
303,39	-31,56405
303,65	149,92748
303,91	51,29129
304,169	74,96408
304,429	106,5277
304,689	159,79103
304,949	404,40426
305,209	224,89025
305,468	35,50939
305,728	31,56391
305,988	69,04589
306,247	61,15496
306,507	106,5277
306,767	256,45336
307,026	116,3913
307,286	169,65458
307,545	31,56391
307,805	-7,891
308,065	232,78104
308,324	27,61843
308,584	71,01862
308,843	72,99135
309,103	37,48213
309,362	3,9455
309,622	39,45487
309,881	132,17305
310,14	187,40894
310,4	288,01637
310,659	169,65458
310,919	112,44586
311,178	122,30946
311,437	228,83564
311,697	63,1277
311,956	102,58225
312,215	92,71863
312,475	78,90954
312,734	159,79103
312,993	-5,91825
313,252	116,3913
313,512	193,32705
313,771	120,33674
314,03	226,86295
314,289	222,91755
314,548	153,8729
314,808	236,72643
315,067	163,73645
315,326	47,34582
315,585	151,90019
315,844	213,05406
316,103	203,19056
316,362	31,56391
316,621	218,97216
316,88	167,68187
317,139	108,50042
317,398	-15,78201
317,657	116,3913
317,916	59,18223
318,175	88,77318
318,434	126,2549
318,693	84,82773
318,952	67,07316
319,211	59,18223
319,47	33,53665
319,729	96,66408
319,987	59,18223
320,246	11,83648
320,505	319,5793
320,764	21,70021
321,023	61,15496
321,281	142,03662
321,54	272,23488
321,799	82,855
322,058	-39,45509
322,316	201,21786
322,575	100,60953
322,834	114,41858
323,092	90,74591
323,351	155,84561
323,609	220,94486
323,868	252,50797
324,127	51,29129
324,385	71,01862
324,644	67,07316
324,902	155,84561
325,161	155,84561
325,419	51,29129
325,678	9,86374
325,936	82,855
326,195	19,72746
326,453	220,94486
326,712	149,92748
326,97	187,40894
327,228	55,23676
327,487	142,03662
327,745	41,42761
328,004	317,60662
328,262	165,70916
328,52	92,71863
328,779	136,11848
329,037	128,22761
329,295	45,37308
329,553	124,28218
329,812	110,47314
330,07	88,77318
330,328	-25,64578
330,586	94,69136
330,844	122,30946
331,103	49,31856
331,361	84,82773
331,619	55,23676
331,877	175,5727
332,135	-0
332,393	195,29975
332,651	268,2895
332,909	104,55497
333,167	17,75472
333,425	53,26403
333,683	39,45487
333,941	183,46353
334,199	203,19056
334,457	120,33674
334,715	63,1277
334,973	80,88227
335,231	92,71863
335,489	71,01862
335,747	13,80923
336,005	159,79103
336,262	-53,26442
336,52	138,09119
336,778	195,29975
337,036	185,43623
337,294	100,60953
337,551	17,75472
337,809	153,8729
338,067	90,74591
338,325	71,01862
338,582	63,1277
338,84	92,71863
339,098	256,45336
339,355	86,80045
339,613	151,90019
339,871	96,66408
340,128	110,47314
340,386	118,36402
340,643	155,84561
340,901	282,09831
341,159	159,79103
341,416	92,71863
341,674	147,95476
341,931	134,14576
342,189	102,58225
342,446	45,37308
342,703	114,41858
342,961	260,39874
343,218	147,95476
343,476	80,88227
343,733	-23,67302
343,99	63,1277
344,248	313,66126
344,505	189,38164
344,762	266,31681
345,02	120,33674
345,277	92,71863
345,534	145,98205
345,792	1,97275
346,049	63,1277
346,306	13,80923
346,563	43,40035
346,82	31,56391
347,078	199,24516
347,335	80,88227
347,592	220,94486
347,849	209,10866
348,106	41,42761
348,363	29,59117
348,62	80,88227
348,877	144,00934
349,135	161,76374
349,392	215,02676
349,649	43,40035
349,906	37,48213
350,163	159,79103
350,42	-19,72752
350,676	132,17305
350,933	19,72746
351,19	78,90954
351,447	72,99135
351,704	74,96408
351,961	157,81832
352,218	216,99946
352,475	167,68187
352,732	37,48213
352,988	27,61843
353,245	151,90019
353,502	67,07316
353,759	136,11848
354,015	177,54541
354,272	201,21786
354,529	25,64569
354,786	71,01862
355,042	301,82516
355,299	43,40035
355,556	142,03662
355,812	175,5727
356,069	17,75472
356,325	112,44586
356,582	185,43623
356,839	211,08136
357,095	203,19056
357,352	191,35434
357,608	88,77318
357,865	19,72746
358,121	145,98205
358,378	67,07316
358,634	254,48067
358,891	25,64569
359,147	157,81832
359,404	185,43623
359,66	169,65458
359,916	183,46353
360,173	151,90019
360,429	171,62729
360,685	114,41858
360,942	161,76374
361,198	207,13596
361,454	222,91755
361,711	138,09119
361,967	149,92748
362,223	177,54541
362,479	211,08136
362,735	234,75373
362,992	19,72746
363,248	-1,97275
363,504	220,94486
363,76	248,56259
364,016	74,96408
364,272	303,79784
364,528	185,43623
364,785	124,28218
365,041	161,76374
365,297	145,98205
365,553	118,36402
365,809	232,78104
366,065	252,50797
366,321	114,41858
366,577	232,78104
366,833	69,04589
367,089	130,20033
367,344	199,24516
367,6	118,36402
367,856	185,43623
368,112	-0
368,368	67,07316
368,624	49,31856
368,88	41,42761
369,135	177,54541
369,391	96,66408
369,647	126,2549
369,903	329,44269
370,158	41,42761
370,414	173,59999
370,67	49,31856
370,926	80,88227
371,181	122,30946
371,437	238,69912
371,693	140,06391
371,948	147,95476
372,204	215,02676
372,459	19,72746
372,715	57,2095
372,971	248,56259
373,226	161,76374
373,482	144,00934
373,737	220,94486
373,993	76,93681
374,248	19,72746
374,504	94,69136
374,759	167,68187
375,015	262,37143
375,27	189,38164
375,525	165,70916
375,781	246,5899
376,036	175,5727
376,291	140,06391
376,547	144,00934
376,802	92,71863
377,057	167,68187
377,313	76,93681
377,568	149,92748
377,823	128,22761
378,079	118,36402
378,334	84,82773
378,589	138,09119
378,844	167,68187
379,099	286,04369
379,354	29,59117
379,61	94,69136
379,865	311,68857
380,12	144,00934
380,375	163,73645
380,63	201,21786
380,885	278,15294
381,14	102,58225
381,395	-5,91825
381,65	118,36402
381,905	11,83648
382,16	278,15294
382,415	124,28218
382,67	116,3913
382,925	76,93681
383,18	74,96408
383,435	246,5899
383,69	114,41858
383,945	145,98205
384,2	138,09119
384,454	71,01862
384,709	218,97216
384,964	110,47314
385,219	110,47314
385,474	106,5277
385,728	147,95476
385,983	303,79784
386,238	120,33674
386,493	215,02676
386,747	82,855
387,002	224,89025
387,257	142,03662
387,511	140,06391
387,766	120,33674
388,02	216,99946
388,275	315,63394
388,53	100,60953
388,784	142,03662
389,039	108,50042
389,293	244,6172
389,548	144,00934
389,802	106,5277
390,057	132,17305
390,311	331,41537
390,566	92,71863
390,82	72,99135
391,075	260,39874
391,329	145,98205
391,583	140,06391
391,838	106,5277
392,092	108,50042
392,346	120,33674
392,601	240,67182
392,855	284,071
393,109	213,05406
393,364	130,20033
393,618	171,62729
393,872	74,96408
394,126	124,28218
394,381	242,64451
394,635	343,25144
394,889	130,20033
395,143	102,58225
395,397	126,2549
395,651	327,47002
395,905	94,69136
396,16	307,74321
396,414	187,40894
396,668	112,44586
396,922	197,27245
397,176	163,73645
397,43	234,75373
397,684	197,27245
397,938	116,3913
398,192	254,48067
398,446	264,34412
398,7	71,01862
398,954	175,5727
399,207	209,10866
399,461	297,87979
399,715	284,071
399,969	183,46353
400,223	136,11848
400,477	252,50797
400,731	240,67182
400,984	211,08136
401,238	112,44586
401,492	246,5899
401,746	238,69912
401,999	149,92748
402,253	276,18025
402,507	144,00934
402,76	199,24516
403,014	195,29975
403,268	199,24516
403,521	325,49734
403,775	250,53528
404,029	282,09831
404,282	232,78104
404,536	341,27876
404,789	380,73223
405,043	398,48626
405,296	426,10359
405,55	161,76374
405,803	329,44269
406,057	404,40426
406,31	351,14214
406,564	353,11482
406,817	268,2895
407,07	390,59558
407,324	329,44269
407,577	355,08749
407,83	331,41537
408,084	341,27876
408,337	402,4316
408,59	327,47002
408,844	333,38805
409,097	270,26219
409,35	459,63884
409,603	289,98906
409,857	430,04891
410,11	495,14668
410,363	542,49034
410,616	514,87322
410,869	347,19679
411,123	603,64239
411,376	402,4316
411,629	489,22871
411,882	404,40426
412,135	388,62292
412,388	583,91595
412,641	633,23203
412,894	656,90371
413,147	940,96223
413,4	723,97333
413,653	597,72446
413,906	720,02807
414,159	708,19226
414,412	759,48071
414,665	725,94597
414,918	816,68695
415,17	842,33109
415,423	911,37292
415,676	763,42597
415,929	854,16684
416,182	895,59194
416,435	1013,94912
416,687	994,22295
416,94	907,42767
417,193	1035,64791
417,446	1069,18237
417,698	1175,70349
417,951	1114,5525
418,204	1240,79963
418,456	1146,11431
418,709	1294,06007
418,962	1276,30659
419,214	1299,97789
419,467	1367,04653
419,719	1414,38906
419,972	1457,78635
420,225	1459,75896
420,477	1649,12862
420,73	1568,25206
420,982	1655,04641
421,235	1657,01901
421,487	1678,71757
421,74	1698,44353
421,992	1870,059
422,244	1885,8397
422,497	1860,19607
422,749	2055,48165
423,002	2033,78332
423,254	2069,28966
423,506	2234,9852
423,759	2300,07948
424,011	2382,92636
424,263	2382,92636
424,515	2444,07494
424,768	2467,74528
425,02	2737,97818
425,272	2530,86598
425,524	2771,51021
425,776	2935,22346
426,029	2982,56157
426,281	3094,98823
426,533	2978,61674
426,785	3181,77233
427,037	3110,76725
427,289	3375,05928
427,541	3339,55814
427,793	3459,86648
428,045	3438,17177
428,297	3493,39448
428,549	3751,74814
428,801	3659,05832
429,053	3933,17657
429,305	4039,66249
429,557	4284,17113
429,809	4221,07418
430,061	4299,94513
430,313	4225,01778
430,565	4570,0594
430,817	4530,62856
431,069	4510,91289
431,32	4980,09696
431,572	5218,58834
431,824	5082,59301
432,076	4936,73156
432,328	5395,95723
432,579	5303,33363
432,831	5616,65536
433,083	5468,86992
433,334	5675,76545
433,586	5681,67633
433,838	5661,97331
434,089	6256,87902
434,341	6280,51197
434,593	6664,48042
434,844	6725,50947
435,096	6936,13124
435,347	7048,31409
435,599	6926,29004
435,851	7158,51658
436,102	7168,35548
436,354	7467,40992
436,605	7459,54129
436,856	7744,73528
437,108	7848,95557
437,359	8016,07474
437,611	7882,38205
437,862	8000,3473
438,114	8248,01967
438,365	8619,3841
438,616	8968,96927
438,868	8407,19746
439,119	9031,79845
439,37	9029,83512
439,621	9577,39282
439,873	9583,27819
440,124	9702,93631
440,375	9916,69854
440,626	9985,32318
440,878	9985,32318
441,129	10434,14585
441,38	10396,91921
441,631	10886,56749
441,882	11360,17831
442,133	11051,00286
442,385	11477,54545
442,636	11373,87232
442,887	11997,59688
443,138	11788,45766
443,389	11876,42235
443,64	12538,67114
443,891	12610,90712
444,142	12966,10145
444,393	13449,75938
444,644	13771,33018
444,895	14135,56908
445,146	14538,51003
445,396	13882,37816
445,647	14193,98275
445,898	14793,37574
446,149	15450,4959
446,4	15300,85572
446,651	15635,07016
446,902	15211,44391
447,152	16349,58087
447,403	16980,01244
447,654	17214,59468
447,905	16834,575
448,155	17584,74816
448,406	17962,48911
448,657	18251,01687
448,907	18816,2115
449,158	19493,29726
449,409	17786,22999
449,659	18206,48473
449,91	18549,13722
450,16	18467,84037
450,411	19441,07789
450,662	19504,90129
450,912	18878,13247
451,163	18856,84752
451,413	18835,56217
451,664	19738,89538
451,914	19578,39121
452,165	18750,4167
452,415	19152,8667
452,665	18806,53604
452,916	19682,81764
453,166	18465,90465
453,417	17563,43485
453,667	18357,49858
453,917	17904,3855
454,168	17588,62325
454,418	16613,45697
454,668	17162,25587
454,918	16318,53032
455,169	16238,95715
455,419	15642,84059
455,669	15565,13226
455,919	15250,32012
456,17	14612,45127
456,42	14787,54028
456,67	13911,59791
456,92	13841,46813
457,17	13453,65825
457,42	13059,74349
457,67	13447,80994
457,92	12474,237
458,17	11798,23216
458,421	11944,83036
458,671	11555,77753
458,921	11366,04721
459,171	11152,77412
459,421	10794,54288
459,67	10361,64986
459,92	10383,20359
460,17	10142,15254
460,42	9863,75466
460,67	10075,50467
460,92	9612,70428
461,17	9442,01534
461,42	9239,88084
461,67	9320,34916
461,919	8688,13568
462,169	8931,66188
462,419	8523,12146
462,669	8631,17053
462,918	8324,66482
463,168	8739,20423
463,418	8519,19212
463,668	7913,84106
463,917	8314,83893
464,167	8259,81171
464,417	8029,83602
464,666	7727,03625
464,916	7896,14551
465,165	8041,63121
465,415	7935,46845
465,664	7727,03625
465,914	7551,99341
466,164	7262,80391
466,413	7701,47036
466,663	7286,41457
466,912	7961,02738
467,161	7361,17776
467,411	7130,96711
467,66	7180,16204
467,91	6890,86098
468,159	6924,3218
468,408	7010,92119
468,658	6749,13269
468,907	6629,04263
469,157	6542,41216
469,406	6579,8216
469,655	6445,92948
469,904	6341,5616
470,154	6258,84845
470,403	5979,15831
470,652	5914,15122
470,901	5953,54984
471,15	5922,03103
471,4	5691,52774
471,649	5638,32934
471,898	5360,48499
472,147	5612,71461
472,396	5273,77181
472,645	5261,94693
472,894	5340,77785
473,143	5143,69366
473,392	5049,08531
473,641	5151,57746
473,89	4960,38554
474,139	5027,40354
474,388	5007,69261
474,637	4991,92372
474,886	4526,68544
475,135	4745,51811
475,384	4684,40489
475,633	4745,51811
475,882	4489,22546
476,131	4532,60012
476,38	4575,97396
476,628	4516,82761
476,877	4575,97396
477,126	4617,37549
477,375	4583,86003
477,624	4656,8048
477,872	4528,657
478,121	4384,72873
478,37	4424,16199
478,618	4447,82164
478,867	4428,10528
479,116	4365,01187
479,364	4359,09678
479,613	4465,56622
479,862	4311,77557
480,11	4475,42427
480,359	4487,25387
480,607	4378,81369
480,856	4483,31067
481,104	4583,86003
481,353	4644,97608
481,601	4710,03323
481,85	4723,83298
482,098	4723,83298
482,347	4518,79918
482,595	4781,00239
482,844	4920,96208
483,092	4741,57538
483,34	4915,04849
483,589	4982,0681
483,837	4865,76789
484,085	5068,79579
484,334	4976,1547
484,582	5039,22999
484,83	5159,46123
485,078	5159,46123
485,327	5029,37462
485,575	5502,36921
485,823	5281,65501
486,071	5488,57547
486,319	5484,63438
486,568	5715,17084
486,816	5478,72273
487,064	5648,18104
487,312	5644,24037
487,56	5815,64965
487,808	5533,89729
488,056	5833,38045
488,304	5933,85067
488,552	6093,4054
488,8	5981,12817
489,048	6034,31334
489,296	6274,60377
489,544	6245,06238
489,792	6270,66496
490,04	6430,17643
490,288	6268,69555
490,536	6573,91493
490,784	6585,72824
491,031	6512,87751
491,279	6607,38565
491,527	6971,55874
491,775	7014,85735
492,023	7343,47123
492,27	7034,53792
492,518	7435,935
492,766	7461,50845
493,014	7770,29991
493,261	7614,93413
493,509	8067,18689
493,757	7894,17931
494,004	7996,41539
494,252	8336,45572
494,499	8198,88431
494,747	8475,96802
494,995	8825,61998
495,242	8617,41968
495,49	8917,91657
495,737	9332,12423
495,985	9194,73605
496,232	9549,92709
496,48	9755,89296
496,727	9706,85916
496,975	9897,09019
497,222	10028,45501
497,469	10355,77145
497,717	10375,36595
497,964	10747,54633
498,212	10790,62663
498,459	11162,55892
498,706	11340,6149
498,954	11479,50138
499,201	11927,24048
499,448	11937,0127
499,695	12005,41374
499,943	12485,95282
500,19	12089,43853
500,437	12860,73641
500,684	12837,31941
500,931	13090,95421
501,179	13599,84729
501,426	13670,00532
501,673	13607,64303
501,92	13907,70203
502,167	13870,68987
502,414	14770,03358
502,661	14629,96238
502,908	14890,62542
503,155	15199,78059
503,402	15388,31192
503,649	15390,25526
503,896	15460,21161
504,143	15951,64279
504,39	16271,95198
504,637	16774,45282
504,884	16673,59199
505,131	16948,98808
505,378	17206,84099
505,624	17485,9274
505,871	17896,63807
506,118	17629,31066
506,365	18189,05855
506,612	18289,73882
506,858	18808,47114
507,105	18657,52319
507,352	19297,94758
507,599	19346,30418
507,845	19381,11981
508,092	19547,44856
508,339	20021,18646
508,585	19818,17409
508,832	20512,18432
509,079	20104,31756
509,325	20581,76454
509,572	20775,03151
509,818	21176,97998
510,065	21105,48361
510,311	21714,12595
510,558	21746,97107
510,804	22172,01422
511,051	22048,36694
511,297	22562,2744
511,544	22537,15851
511,79	22314,98067
512,037	22801,84395
512,283	23238,50036
512,529	23186,33142
512,776	23342,84025
513,022	23696,46033
513,268	23967,01946
513,515	24413,51385
513,761	24316,86156
514,007	23928,36633
514,254	24916,19324
514,5	24602,96736
514,746	25256,563
514,992	25308,78631
515,238	25419,04244
515,485	25802,11435
515,731	26109,82585
515,977	25778,89431
516,223	25656,99682
516,469	26200,80157
516,715	26644,18456
516,961	26429,24457
517,207	26814,62245
517,453	26679,04429
517,699	27165,28436
517,945	26564,78667
518,191	27539,35443
518,437	27335,82373
518,683	27671,19238
518,929	27194,35112
519,175	27293,18562
519,421	27609,14825
519,667	28012,52427
519,913	28268,62544
520,159	28344,30899
520,404	27797,23471
520,65	28637,41664
520,896	27946,57319
521,142	28909,28353
521,388	28551,99509
521,633	29051,08643
521,879	28631,59211
522,125	29187,09053
522,37	29229,84056
522,616	29299,80126
522,862	29282,31037
523,107	29293,97091
523,353	29222,06762
523,599	29558,33384
523,844	29636,1088
524,09	29622,49748
524,335	29632,21982
524,581	29904,50769
524,826	29410,58801
525,072	30293,70336
525,317	29910,34375
525,563	30202,21948
525,808	30315,11653
526,054	29951,19781
526,299	30058,20966
526,545	30576,03116
526,79	30313,16985
527,035	30509,81782
527,281	30245,03995
527,526	30420,24713
527,771	29799,46803
528,017	30726,01317
528,262	30435,82365
528,507	30607,19302
528,752	30694,84484
528,998	31065,07996
529,243	30398,8301
529,488	30839,01274
529,733	30854,60066
529,978	31384,84953
530,224	30844,85816
530,469	31115,76277
530,714	30373,52008
530,959	31254,18949
531,204	31067,02922
531,449	31051,43538
531,694	30839,01274
531,939	31470,67315
532,184	31041,68946
532,429	31193,74538
532,674	31197,6448
532,919	31527,24615
533,164	31195,69509
533,409	30953,9838
533,654	30905,26438
533,899	31542,85353
534,144	31146,9545
534,388	31531,14795
534,633	31371,19702
534,878	31369,24669
535,123	31591,62952
535,368	31260,03928
535,612	30879,93195
535,857	31166,45022
536,102	31195,69509
536,347	31548,70642
536,591	31043,63863
536,836	31591,62952
537,081	31289,28913
537,325	31164,50061
537,57	31484,32816
537,815	31345,84326
538,059	31217,14232
538,304	31593,58065
538,548	31180,09763
538,793	31464,82111
539,037	31199,59452
539,282	32017,1449
539,526	31203,49398
539,771	31289,28913
540,015	31466,77178
540,26	31759,45277
540,504	31601,38525
540,749	31913,66253
540,993	31773,11512
541,237	31962,47244
541,482	31964,42493
541,726	32273,0097
541,97	32069,87016
542,215	32116,7415
542,459	31862,905
542,703	31993,71315
542,948	32069,87016
543,192	32284,73171
543,436	31757,50103
543,68	32224,17086
543,924	32276,91701
544,169	31987,85538
544,413	31775,06691
544,657	32120,64764
544,901	31814,10427
545,145	32173,38331
545,389	32267,1488
545,633	31777,01871
545,877	31771,16333
546,121	31546,75545
546,365	31246,38988
546,609	31410,2051
546,853	31283,43903
547,097	31115,76277
547,341	31067,02922
547,585	31205,44373
547,829	31182,04729
548,073	31355,59457
548,317	31092,37013
548,561	30624,72231
548,805	30801,99316
549,048	31172,29907
549,292	30679,26131
549,536	31205,44373
549,78	30465,03075
550,023	30889,67506
550,267	30681,20923
550,511	30726,01317
550,755	30650,04334
550,998	30307,32983
551,242	29997,89155
551,486	30576,03116
551,729	30562,39838
551,973	30396,88314
552,216	30108,80373
552,46	30669,52182
552,704	30289,81014
552,947	30367,67947
553,191	30153,56361
553,434	30165,24065
553,678	30075,72251
553,921	30511,76516
554,165	30157,45593
554,408	29949,25232
554,652	29441,68952
554,895	29606,94205
555,138	29750,84468
555,382	30071,83072
555,625	29603,05326
555,868	30215,84383
556,112	29358,10767
556,355	29923,96147
556,598	29360,05131
556,842	29686,66775
557,085	29848,09525
557,328	29342,55878
557,571	29021,94636
557,814	29486,40062
558,058	29595,27574
558,301	29634,16431
558,544	28938,41864
558,787	29713,89351
559,03	29414,47561
559,273	29830,589
559,516	29488,34465
559,759	29735,28602
560,003	29344,50237
560,246	29879,2187
560,489	29266,76331
560,732	29916,17988
560,975	29243,44343
561,217	29327,01026
561,46	29599,16448
561,703	29758,62416
561,946	29745,01014
562,189	30132,15629
562,432	29778,07328
562,675	30124,372
562,918	29694,44641
563,161	30379,36076
563,403	29904,50769
563,646	30287,86354
563,889	30246,98641
564,132	30373,52008
564,374	30206,11212
564,617	30681,20923
564,86	30243,0935
565,102	30595,50713
565,345	30605,24536
565,588	30494,23931
565,83	30385,2015
566,073	30558,50336
566,316	30272,29096
566,558	30583,82147
566,801	29988,16339
567,043	30400,77707
567,286	30369,62633
567,528	30363,78575
567,771	30130,21021
568,013	30256,7188
568,256	29918,12527
568,498	29603,05326
568,741	29793,63303
568,983	30065,99308
569,225	29371,71327
569,468	29824,7537
569,71	28955,90031
569,952	29237,61359
570,195	28981,15244
570,437	29231,78381
570,679	28631,59211
570,922	28806,34965
571,164	28858,78569
571,406	28781,10412
571,648	28435,52805
571,891	28753,91767
572,133	28196,83045
572,375	28326,84284
572,617	28218,17416
572,859	28515,11177
573,101	28212,35308
573,343	28047,4419
573,585	27622,71999
573,827	28270,56594
574,069	27830,20302
574,312	28074,6012
574,554	27521,90694
574,795	27330,00931
575,037	27475,38213
575,279	27335,82373
575,521	27178,84873
575,763	27636,29196
576,005	26795,25291
576,247	27706,09436
576,489	26772,01001
576,731	27297,06172
576,973	26646,12118
577,214	27078,09004
577,456	26630,62835
577,698	27159,47113
577,94	26245,32453
578,181	26671,29757
578,423	26285,97763
578,665	26469,9052
578,907	26694,53793
579,148	26140,79542
579,39	26082,72823
579,632	26584,15139
579,873	26156,28054
580,115	25924,02741
580,356	25933,70362
580,598	26198,86584
580,839	26225,96649
581,081	26030,47049
581,323	25647,32296
581,564	25362,94603
581,806	25575,73886
582,047	25840,81546
582,288	25264,29966
582,53	25513,83171
582,771	25672,47516
583,013	26003,3749
583,254	25103,77315
583,495	25291,37831
583,737	25589,28146
583,978	25362,94603
584,219	25324,26029
584,461	25508,02808
584,702	25154,05653
584,943	25028,35148
585,184	24720,90318
585,426	24910,39219
585,667	24643,56726
585,908	24956,80126
586,149	24697,70202
586,39	24546,90244
586,631	24819,51191
586,873	24655,16742
587,114	24548,83568
587,355	24527,57013
587,596	24390,31684
587,837	24620,3672
588,078	24247,27496
588,319	24152,56377
588,56	23568,92058
588,801	24131,30267
589,042	23619,16284
589,283	24098,44504
589,524	23203,72099
589,765	23194,06011
590,005	23545,73212
590,246	23729,31242
590,487	23002,7788
590,728	23078,13114
590,969	23180,53491
591,21	23101,31671
591,45	22544,88647
591,691	22939,01993
591,932	22604,77829
592,173	22761,27127
592,413	22264,74925
592,654	22608,64229
592,895	22268,61321
593,135	22384,53186
593,376	22144,96644
593,617	22562,2744
593,857	21930,51461
594,098	22085,07482
594,338	21938,24267
594,579	22104,39472
594,819	21644,57097
595,06	22000,06695
595,3	21316,10368
595,541	21791,40834
595,781	21685,14481
596,022	21555,6939
596,262	21830,04921
596,503	21623,3179
596,743	21605,92895
596,983	21994,27094
597,224	21743,10695
597,464	22100,53074
597,704	21611,72527
597,945	22011,65896
598,185	21236,88114
598,425	21810,7288
598,666	21451,35787
598,906	21497,72973
599,146	21503,52618
599,386	21341,22267
599,626	21086,15999
599,867	21532,50832
600,107	21018,52634
600,347	21219,49059
600,587	21250,40707
600,827	21026,25598
601,067	20703,52461
601,307	21265,8652
601,547	21095,82182
601,787	21420,44303
602,027	20929,63398
602,267	21306,44249
602,507	20867,7941
602,747	21312,23921
602,987	21215,62601
603,227	21669,68814
603,467	21368,2737
603,707	21484,20466
603,947	21076,49813
604,187	21422,37521
604,426	21391,46015
604,666	21464,88305
604,906	21186,64153
605,146	21306,44249
605,386	20939,29633
605,625	21287,12003
605,865	20976,01295
606,105	21575,01513
606,344	21337,35822
606,584	22347,82428
606,824	22517,83863
607,063	23694,52787
607,303	25653,12726
607,543	27696,39921
607,782	28761,68512
608,022	30496,1866
608,261	30786,40669
608,501	30918,90539
608,74	30502,02851
608,98	29517,50586
609,219	28810,23366
609,459	28066,8413
609,698	26779,75758
609,938	26239,51708
610,177	25877,58276
610,416	25424,84565
610,656	25270,10218
610,895	25362,94603
611,134	26142,73104
611,374	28103,70155
611,613	30044,58891
611,852	32955,28502
612,092	36485,53243
612,331	39539,40528
612,57	42348,94538
612,809	44031,81495
613,049	43128,06629
613,288	43378,83502
613,527	41989,05133
613,766	40702,46756
614,005	38704,5095
614,244	37006,16074
614,483	34102,97886
614,722	31929,28121
614,961	29999,8372
615,2	28388,94664
615,439	26380,84126
615,678	25533,17736
615,917	23856,8597
616,156	22900,37852
616,395	21951,76676
616,634	21356,68042
616,873	20689,99604
617,112	20579,83178
617,351	19880,04729
617,59	19707,9562
617,829	19386,92232
618,068	19775,63481
618,306	19648,00968
618,545	19669,28131
618,784	19400,46142
619,023	19444,94607
619,261	19222,50763
619,5	19174,14629
619,739	18591,71875
619,977	18941,98492
620,216	18386,53706
620,455	18160,01422
620,693	17797,85253
620,932	17797,85253
621,171	17983,79285
621,409	17613,81092
621,648	17007,15775
621,886	17392,90906
622,125	17303,75672
622,363	17245,60867
622,602	17055,62917
622,84	17311,50948
623,079	17080,83314
623,317	17284,37449
623,556	17127,36143
623,794	17361,90064
624,032	17385,15706
624,271	17173,88701
624,509	17204,90256
624,747	17305,69491
624,986	17371,59089
625,224	17135,11588
625,462	17445,23314
625,7	17363,8387
625,939	17398,72301
626,177	17466,54943
626,415	17367,7148
626,653	17402,59895
626,891	17327,01478
627,13	17499,49171
627,368	17807,53787
627,606	18560,75053
627,844	19065,80995
628,082	20044,38625
628,32	20807,88532
628,558	23472,30316
628,796	26603,51651
629,034	31207,39347
629,272	37448,3892
629,51	43917,1871
629,748	50967,1696
629,986	56172,23238
630,224	58266,57329
630,462	60774,79986
630,7	59959,72124
630,938	59330,34082
631,175	56060,1627
631,413	52044,01417
631,651	48270,07963
631,889	43905,12366
632,127	40032,03701
632,364	36351,52969
632,602	33176,39067
632,84	31141,10591
633,078	29743,0653
633,315	30367,67947
633,553	32517,2731
633,791	35210,17073
634,028	37750,7061
634,266	41410,01397
634,503	42741,27431
634,741	43116,03451
634,979	41937,09819
635,216	40507,38347
635,454	37784,30997
635,691	34626,80532
635,929	31355,59457
636,166	28839,36446
636,404	25695,69305
636,641	23594,0416
636,878	20682,26539
637,116	19089,0257
637,353	17491,7407
637,591	16167,13958
637,828	14267,96537
638,065	13418,56754
638,302	12439,08814
638,54	11665,28532
638,777	10898,31433
639,014	10882,65183
639,252	10345,97397
639,489	10214,67332
639,726	9634,2826
639,963	9394,92128
640,2	9339,97417
640,437	9067,13746
640,675	8756,88099
640,912	8851,14998
641,149	8648,84983
641,386	8483,82713
641,623	8623,31293
641,86	8369,86233
642,097	8326,62998
642,334	8220,50424
642,571	8161,53944
642,808	8106,50177
643,045	7962,99342
643,282	7980,68757
643,519	7675,90371
643,756	7748,66835
643,993	7795,86379
644,229	7925,63789
644,466	7803,72945
644,703	7872,55087
644,94	8092,74178
645,177	8155,64273
645,413	8354,14175
645,65	9314,46154
645,887	9816,68988
646,124	10890,48313
646,36	11888,15
646,597	13180,67586
646,834	13806,40018
647,07	14892,57026
647,307	14382,8154
647,544	14197,8768
647,78	13888,22223
648,017	13042,18674
648,253	12396,12558
648,49	12042,54244
648,726	11027,51478
648,963	10455,69712
649,199	9555,8127
649,436	9114,25344
649,672	8735,276
649,909	8143,84917
650,145	7841,09033
650,382	7742,76874
650,618	7396,58983
650,854	7339,5364
651,091	7071,92994
651,327	7235,25741
651,563	7237,22504
651,8	7146,70976
652,036	6861,33583
652,272	6845,58874
652,508	6861,33583
652,745	6471,52772
652,981	6430,17643
653,217	6304,14445
653,453	6099,31446
653,689	6182,03834
653,925	6132,79859
654,161	5839,29067
654,398	5882,63149
654,634	5626,50721
654,87	5746,69437
655,106	5730,93269
655,342	5468,86992
655,578	5427,48746
655,814	5468,86992
656,05	5482,66384
656,286	5384,13324
656,522	5480,69328
656,757	5137,78079
656,993	5283,62581
657,229	4999,80818
657,465	5021,49028
657,701	4930,81802
657,937	4999,80818
658,173	4851,9691
658,408	4717,91881
658,644	4682,43347
658,88	4779,03106
659,116	4611,46104
659,351	4680,46204
659,587	4641,03316
659,823	4485,28227
660,058	4682,43347
660,294	4520,77075
660,53	4562,17328
660,765	4234,87677
661,001	4366,98356
661,236	4355,15338
661,472	3919,37258
661,707	4140,22909
661,943	4094,87595
662,178	4055,43787
662,414	3978,53213
662,649	4106,70728
662,885	3743,85974
663,12	3923,31658
663,356	3785,27368
663,591	3804,99443
663,826	3897,68047
664,062	3909,51255
664,297	3446,06077
664,532	3814,85477
664,768	3556,50529
665,003	3513,11671
665,238	3586,08816
665,474	3432,25501
665,709	3451,97751
665,944	3471,69992
666,179	3422,39373
666,414	3495,3667
666,649	3347,44731
666,885	3440,14402
667,12	3229,10857
667,355	3499,31116
667,59	3375,05928
667,825	3438,17177
668,06	3209,38518
668,295	3536,78326
668,53	3463,81097
668,765	3349,4196
669	3345,47502
669,235	3471,69992
669,47	3367,17016
669,705	3469,72768
669,94	3290,25059
670,175	3335,61356
670,409	3300,11214
670,644	3175,85528
670,879	3136,40808
671,114	3225,1639
671,349	3917,40057
671,584	3012,14772
671,818	3124,57386
672,053	2923,38889
672,288	2943,11317
672,522	2962,83739
672,757	2781,37255
672,992	2854,35349
673,226	2903,66455
673,461	2728,1158
673,696	2962,83739
673,93	2824,7667
674,165	2659,0788
674,399	2763,62034
674,634	2635,40886
674,868	2623,57386
675,103	2558,48117
675,337	2708,39099
675,572	2404,62427
675,806	2578,20627
676,041	2327,69515
676,275	2475,63539
676,51	2455,91011
676,744	2588,06881
676,978	2552,56364
677,213	2337,55788
677,447	2394,76159
677,681	2152,1376
677,916	2369,11857
678,15	2355,31078
678,384	2160,02786
678,618	2248,7931
678,853	2138,32963
679,087	2321,77751
679,321	2260,62843
679,555	2252,73821
679,789	2029,83816
680,023	2349,39315
680,257	2100,85082
680,491	1980,5237
680,726	2264,57354
680,96	2215,25961
681,194	2043,6462
681,428	2116,63138
681,662	2041,67362
681,896	2085,07025
682,13	1901,62039
682,364	1990,3866
682,597	2081,1251
682,831	1933,18174
683,065	2037,72847
683,299	1864,14124
683,533	1879,92194
683,767	1972,63338
684,001	1812,85393
684,234	1797,0732
684,468	1694,49834
684,702	1978,55112
684,936	1950,93498
685,169	1862,16865
685,403	1676,74498
685,637	1728,03246
685,87	1708,30651
686,104	1757,62136
686,338	1730,00505
686,571	1688,58055
686,805	1714,22429
687,038	1649,12862
687,272	1672,79978
687,506	1749,73099
687,739	1560,36166
687,973	1824,68947
688,206	1524,85484
688,44	1726,05986
688,673	1704,36132
688,906	1617,56705
689,14	1536,69045
689,373	1552,47126
689,607	1574,16987
689,84	1580,08767
690,073	1386,77259
690,307	1479,48499
690,54	1570,22466
690,773	1388,74519
691,006	1576,14247
691,24	1349,29307
691,473	1609,67666
691,706	1544,58086
691,939	1497,23842
692,173	1436,08771
692,406	1516,96444
692,639	1599,81366
692,872	1818,7717
693,105	1641,23823
693,338	1442,00552
693,571	1824,68947
693,804	1720,14208
694,037	1617,56705
694,27	1524,85484
694,503	1542,60826
694,736	1544,58086
694,969	1481,45759
695,202	1445,95073
695,435	1374,93696
695,668	1309,84093
695,901	1424,25209
696,134	1436,08771
696,367	1264,47094
696,599	1264,47094
696,832	1232,90919
697,065	1226,99136
697,298	1335,48483
697,53	1118,49773
697,763	1217,12831
697,996	1284,19703
698,229	1096,79898
698,461	1319,70397
698,694	1108,63466
698,927	1154,00476
699,159	1021,83959
699,392	1090,88113
699,624	1015,92174
699,857	1187,53915
700,09	1031,70267
700,322	1140,19647
700,555	1015,92174
700,787	1092,85375
701,02	990,27771
701,252	1081,01806
701,484	1049,45622
701,717	1053,40145
701,949	1049,45622
702,182	935,04437
702,414	1035,64791
702,646	1008,03127
702,879	1124,41557
703,111	1023,81221
703,343	1006,05865
703,576	996,19557
703,808	931,09913
704,04	938,98961
704,272	982,38724
704,505	974,49677
704,737	889,67407
704,969	1019,86698
705,201	952,79795
705,433	1057,34668
705,665	844,30372
705,897	804,85119
706,129	854,16684
706,362	974,49677
706,594	1686,60796
706,826	838,38584
707,058	814,71432
707,29	881,78358
707,522	1053,40145
707,754	832,46796
707,985	806,82381
708,217	873,89309
708,449	757,50808
708,681	927,15389
708,913	856,13947
709,145	842,33109
709,377	816,68695
709,608	858,11209
709,84	974,49677
710,072	777,23438
710,304	828,52271
710,535	895,59194
710,767	781,17964
710,999	769,34386
711,231	710,1649
711,462	739,7544
711,694	627,31411
711,925	570,10742
712,157	919,2634
712,389	767,37123
712,62	785,1249
712,852	864,02997
713,083	794,98805
713,315	915,31816
713,546	613,50561
713,778	674,65745
714,009	718,05543
714,241	611,53297
714,472	885,72883
714,703	702,27436
714,935	639,14995
715,166	609,56033
715,397	564,18948
715,629	720,02807
715,86	692,41118
716,091	716,0828
716,323	723,97333
716,554	587,86124
716,785	554,32624
717,016	631,25939
717,248	583,91595
717,479	674,65745
717,71	461,6115
717,941	759,48071
718,172	605,61504
718,403	432,02158
718,634	725,94597
718,865	670,71218
719,096	633,23203
719,327	670,71218
719,558	477,39277
719,789	499,09199
720,02	518,81853
720,251	459,63884
720,482	629,28675
720,713	560,24418
720,944	471,4748
721,175	599,69711
721,406	574,05272
721,637	465,55682
721,868	566,16213
722,098	430,04891
722,329	676,63009
722,56	390,59558
722,791	361,00551
723,021	560,24418
723,252	441,88489
723,483	512,90057
723,713	386,65025
723,944	516,84587
724,175	479,36543
724,405	349,16947
724,636	463,58416
724,867	420,18559
725,097	556,29889
725,328	516,84587
725,558	503,0373
725,789	437,93957
726,019	526,70914
726,25	564,18948
726,48	280,12563
726,711	572,08007
726,941	485,2834
727,171	544,46299
727,402	445,83022
727,632	410,32226
727,862	378,75956
728,093	477,39277
728,323	313,66126
728,553	524,73648
728,784	467,52948
729,014	384,67758
729,244	319,5793
729,474	449,77554
729,705	457,66618
729,935	305,77053
730,165	477,39277
730,395	433,99424
730,625	353,11482
730,855	420,18559
731,085	560,24418
731,315	528,68179
731,545	325,49734
731,775	315,63394
732,005	467,52948
732,235	353,11482
732,465	364,95086
732,695	439,91223
732,925	451,7482
733,155	562,21683
733,385	319,5793
733,615	424,13092
733,845	264,34412
734,075	341,27876
734,305	309,71589
734,534	402,4316
734,764	366,92353
734,994	394,54092
735,224	574,05272
735,453	364,95086
735,683	341,27876
735,913	414,2676
736,142	317,60662
736,372	445,83022
736,602	428,07625
736,831	341,27876
737,061	276,18025
737,291	361,00551
737,52	410,32226
737,75	305,77053
737,979	400,45893
738,209	380,73223
738,438	449,77554
738,668	258,42605
738,897	422,15826
739,127	201,21786
739,356	384,67758
739,585	116,3913
739,815	248,56259
740,044	291,96174
740,273	382,70491
740,503	359,03284
740,732	339,30608
740,961	236,72643
741,191	270,26219
741,42	264,34412
741,649	422,15826
741,878	238,69912
742,108	313,66126
742,337	329,44269
742,566	347,19679
742,795	248,56259
743,024	230,80834
743,253	315,63394
743,482	264,34412
743,711	191,35434
743,94	311,68857
744,169	368,89621
744,398	262,37143
744,627	291,96174
744,856	199,24516
745,085	335,36073
745,314	291,96174
745,543	270,26219
745,772	301,82516
746,001	250,53528
746,23	240,67182
746,459	289,98906
746,687	163,73645
746,916	238,69912
747,145	276,18025
747,374	252,50797
747,603	299,85248
747,831	110,47314
748,06	274,20756
748,289	333,38805
748,517	144,00934
748,746	262,37143
748,975	337,33341
749,203	291,96174
749,432	175,5727
749,66	234,75373
749,889	329,44269
750,118	224,89025
750,346	230,80834
750,575	333,38805
750,803	359,03284
751,031	343,25144
751,26	453,72086
751,488	242,64451
751,717	341,27876
751,945	216,99946
752,174	256,45336
752,402	232,78104
752,63	418,21293
752,859	254,48067
753,087	319,5793
753,315	268,2895
753,543	189,38164
753,772	234,75373
754	203,19056
754,228	173,59999
754,456	420,18559
754,684	286,04369
754,913	153,8729
755,141	248,56259
755,369	203,19056
755,597	234,75373
755,825	199,24516
756,053	216,99946
756,281	272,23488
756,509	331,41537
756,737	185,43623
756,965	262,37143
757,193	165,70916
757,421	193,32705
757,649	132,17305
757,877	209,10866
758,105	175,5727
758,332	80,88227
758,56	126,2549
758,788	284,071
759,016	185,43623
759,244	183,46353
759,472	226,86295
759,699	250,53528
759,927	179,51812
760,155	209,10866
760,382	195,29975
760,61	244,6172
760,838	209,10866
761,065	157,81832
761,293	118,36402
761,521	252,50797
761,748	183,46353
761,976	98,63681
762,203	120,33674
762,431	167,68187
762,658	69,04589
762,886	84,82773
763,113	59,18223
763,341	92,71863
763,568	84,82773
763,796	-39,45509
764,023	98,63681
764,25	213,05406
764,478	130,20033
764,705	102,58225
764,932	211,08136
765,16	236,72643
765,387	207,13596
765,614	177,54541
765,842	104,55497
766,069	280,12563
766,296	120,33674
766,523	108,50042
766,75	165,70916
766,978	124,28218
767,205	86,80045
767,432	167,68187
767,659	165,70916
767,886	163,73645
768,113	193,32705
768,34	57,2095
768,567	128,22761
768,794	100,60953
769,021	110,47314
769,248	90,74591
769,475	195,29975
769,702	282,09831
769,929	145,98205
770,156	163,73645
770,383	205,16326
770,609	142,03662
770,836	94,69136
771,063	201,21786
771,29	74,96408
771,517	203,19056
771,743	171,62729
771,97	195,29975
772,197	74,96408
772,424	86,80045
772,65	59,18223
772,877	240,67182
773,104	90,74591
773,33	110,47314
773,557	69,04589
773,783	157,81832
774,01	102,58225
774,236	201,21786
774,463	270,26219
774,69	201,21786
774,916	128,22761
775,143	120,33674
775,369	177,54541
775,595	37,48213
775,822	130,20033
776,048	187,40894
776,275	203,19056
776,501	138,09119
776,727	78,90954
776,954	47,34582
777,18	220,94486
777,406	43,40035
777,633	102,58225
777,859	144,00934
778,085	147,95476
778,311	274,20756
778,537	236,72643
778,764	69,04589
778,99	183,46353
779,216	94,69136
779,442	55,23676
779,668	163,73645
779,894	209,10866
780,12	57,2095
780,346	230,80834
780,572	195,29975
780,798	209,10866
781,024	220,94486
781,25	65,10043
781,476	-29,59129
781,702	209,10866
781,928	27,61843
782,154	147,95476
782,38	179,51812
782,606	136,11848
782,831	181,49082
783,057	110,47314
783,283	90,74591
783,509	228,83564
783,735	199,24516
783,96	45,37308
784,186	41,42761
784,412	295,90711
784,637	211,08136
784,863	108,50042
785,089	165,70916
785,314	195,29975
785,54	94,69136
785,766	169,65458
785,991	181,49082
786,217	155,84561
786,442	90,74591
786,668	132,17305
786,893	201,21786
787,119	132,17305
787,344	157,81832
787,57	67,07316
787,795	311,68857
788,02	177,54541
788,246	161,76374
788,471	-29,59129
788,696	47,34582
788,922	55,23676
789,147	189,38164
789,372	114,41858
789,598	222,91755
789,823	116,3913
790,048	234,75373
790,273	120,33674
790,499	224,89025
790,724	163,73645
790,949	201,21786
791,174	185,43623
791,399	183,46353
791,624	264,34412
791,849	205,16326
792,074	228,83564
792,299	311,68857
792,524	151,90019
792,749	142,03662
792,974	45,37308
793,199	183,46353
793,424	224,89025
793,649	203,19056
793,874	179,51812
794,099	78,90954
794,324	100,60953
794,549	118,36402
794,774	82,855
794,998	220,94486
795,223	293,93443
795,448	126,2549
795,673	175,5727
795,897	201,21786
796,122	199,24516
796,347	53,26403
796,571	159,79103
796,796	226,86295
797,021	102,58225
797,245	262,37143
797,47	31,56391
797,695	25,64569
797,919	94,69136
798,144	72,99135
798,368	258,42605
798,593	199,24516
798,817	140,06391
799,042	211,08136
799,266	159,79103
799,491	232,78104
799,715	218,97216
799,939	193,32705
800,164	118,36402
800,388	211,08136
800,612	110,47314
800,837	98,63681
801,061	118,36402
801,285	147,95476
801,51	169,65458
801,734	242,64451
801,958	74,96408
802,182	144,00934
802,406	216,99946
802,631	102,58225
802,855	126,2549
803,079	157,81832
803,303	61,15496
803,527	94,69136
803,751	211,08136
803,975	33,53665
804,199	33,53665
804,423	94,69136
804,647	128,22761
804,871	74,96408
805,095	116,3913
805,319	159,79103
805,543	179,51812
805,767	282,09831
805,991	114,41858
806,215	224,89025
806,438	112,44586
806,662	232,78104
806,886	244,6172
807,11	19,72746
807,334	157,81832
807,557	29,59117
807,781	126,2549
808,005	45,37308
808,228	114,41858
808,452	-21,70027
808,676	130,20033
808,899	218,97216
809,123	189,38164
809,347	98,63681
809,57	151,90019
809,794	319,5793
810,017	256,45336
810,241	167,68187
810,464	252,50797
810,688	293,93443
810,911	280,12563
811,135	244,6172
811,358	-1,97275
811,581	144,00934
811,805	147,95476
812,028	161,76374
812,251	179,51812
812,475	67,07316
812,698	69,04589
812,921	90,74591
813,145	149,92748
813,368	102,58225
813,591	31,56391
813,814	7,89099
814,038	94,69136
814,261	151,90019
814,484	-41,42785
814,707	147,95476
814,93	33,53665
815,153	96,66408
815,376	84,82773
815,599	59,18223
815,822	138,09119
816,045	120,33674
816,268	-41,42785
816,491	177,54541
816,714	209,10866
816,937	-39,45509
817,16	29,59117
817,383	86,80045
817,606	134,14576
817,829	71,01862
818,052	-33,53681
818,274	224,89025
818,497	69,04589
818,72	-5,91825
818,943	-21,70027
819,166	94,69136
819,388	98,63681
819,611	138,09119
819,834	128,22761
820,056	53,26403
820,279	65,10043
820,502	169,65458
820,724	122,30946
820,947	21,70021
821,169	86,80045
821,392	112,44586
821,614	201,21786
821,837	43,40035
822,06	47,34582
822,282	29,59117
822,504	246,5899
822,727	43,40035
822,949	51,29129
823,172	132,17305
823,394	82,855
823,616	53,26403
823,839	-11,8365
824,061	169,65458
824,283	106,5277
824,506	74,96408
824,728	15,78197
824,95	86,80045
825,172	138,09119
825,395	3,9455
825,617	-78,9104
825,839	61,15496
826,061	140,06391
826,283	122,30946
826,505	134,14576
826,728	132,17305
826,95	142,03662
827,172	142,03662
827,394	177,54541
827,616	-128,22987
827,838	94,69136
828,06	-1,97275
828,282	57,2095
828,504	63,1277
828,726	63,1277
828,947	65,10043
829,169	94,69136
829,391	128,22761
829,613	100,60953
829,835	108,50042
830,057	-5,91825
830,278	171,62729
830,5	57,2095
830,722	134,14576
830,944	236,72643
831,165	84,82773
831,387	185,43623
831,609	-76,93763
831,83	-33,53681
832,052	159,79103
832,274	173,59999
832,495	264,34412
832,717	-84,82871
832,938	189,38164
833,16	53,26403
833,381	-21,70027
833,603	19,72746
833,824	80,88227
834,046	-13,80925
834,267	126,2549
834,489	13,80923
834,71	-82,85594
834,931	72,99135
835,153	191,35434
835,374	61,15496
835,595	-23,67302
835,817	-3,9455
836,038	53,26403
836,259	-9,86375
836,481	189,38164
836,702	9,86374
836,923	-19,72752
837,144	-31,56405
837,365	110,47314
837,587	65,10043
837,808	104,55497
838,029	173,59999
838,25	65,10043
838,471	92,71863
838,692	5,91824
838,913	-21,70027
839,134	282,09831
839,355	179,51812
839,576	67,07316
839,797	23,67295
840,018	203,19056
840,239	252,50797
840,46	31,56391
840,681	35,50939
840,901	215,02676
841,122	19,72746
841,343	140,06391
841,564	53,26403
841,785	31,56391
842,005	80,88227
842,226	63,1277
842,447	-35,50957
842,668	31,56391
842,888	-29,59129
843,109	72,99135
843,33	179,51812
843,55	43,40035
843,771	80,88227
843,991	-21,70027
844,212	57,2095
844,433	-35,50957
844,653	114,41858
844,874	144,00934
845,094	61,15496
845,315	65,10043
845,535	63,1277
845,755	47,34582
845,976	92,71863
846,196	71,01862
846,417	-49,31889
846,637	61,15496
846,857	45,37308
847,078	114,41858
847,298	29,59117
847,518	157,81832
847,738	-134,14824
847,959	106,5277
848,179	138,09119
848,399	67,07316
848,619	41,42761
848,839	124,28218
849,06	43,40035
849,28	11,83648
849,5	98,63681
849,72	41,42761
849,94	-55,23718
850,16	82,855
850,38	126,2549
850,6	138,09119
850,82	147,95476
851,04	17,75472
851,26	35,50939
851,48	104,55497
851,7	3,9455
851,92	7,89099
852,14	9,86374
852,359	35,50939
852,579	-65,10101
852,799	276,18025
853,019	29,59117
853,239	53,26403
853,458	122,30946
853,678	15,78197
853,898	104,55497
854,117	43,40035
854,337	94,69136
854,557	3,9455
854,776	76,93681
854,996	88,77318
855,216	-7,891
855,435	13,80923
855,655	102,58225
855,874	63,1277
856,094	57,2095
856,313	-9,86375
856,533	74,96408
856,752	108,50042
856,972	-5,91825
857,191	-92,71981
857,411	114,41858
857,63	-0
857,849	-71,01932
858,069	-13,80925
858,288	92,71863
858,507	98,63681
858,727	84,82773
858,946	65,10043
859,165	-21,70027
859,384	-3,9455
859,604	23,67295
859,823	-55,23718
860,042	716,0828
860,261	120,33674
860,48	228,83564
860,699	207,13596
860,918	100,60953
861,137	98,63681
861,356	-65,10101
861,576	-25,64578
861,795	69,04589
862,014	-27,61854
862,233	118,36402
862,451	71,01862
862,67	118,36402
862,889	3,9455
863,108	19,72746
863,327	-33,53681
863,546	69,04589
863,765	116,3913
863,984	27,61843
864,202	31,56391
864,421	7,89099
864,64	23,67295
864,859	-63,12824
865,077	149,92748
865,296	128,22761
865,515	147,95476
865,733	132,17305
865,952	140,06391
866,171	21,70021
866,389	57,2095
866,608	-71,01932
866,826	71,01862
867,045	67,07316
867,264	-3,9455
867,482	21,70021
867,701	-49,31889
867,919	61,15496
868,137	153,8729
868,356	213,05406
868,574	-71,01932
868,793	78,90954
869,011	114,41858
869,229	51,29129
869,448	-9,86375
869,666	9,86374
869,884	41,42761
870,103	134,14576
870,321	90,74591
870,539	-27,61854
870,757	132,17305
870,975	72,99135
871,194	61,15496
871,412	-11,8365
871,63	169,65458
871,848	153,8729
872,066	53,26403
872,284	-98,63814
872,502	118,36402
872,72	102,58225
872,938	39,45487
873,156	106,5277
873,374	27,61843
873,592	-88,77426
873,81	-33,53681
874,028	100,60953
874,246	106,5277
874,464	209,10866
874,682	130,20033
874,9	74,96408
875,117	216,99946
875,335	201,21786
875,553	106,5277
875,771	-3,9455
875,988	71,01862
876,206	15,78197
876,424	-19,72752
876,642	-0
876,859	47,34582
877,077	25,64569
877,294	-25,64578
877,512	19,72746
877,73	218,97216
877,947	84,82773
878,165	76,93681
878,382	90,74591
878,6	23,67295
878,817	71,01862
879,035	31,56391
879,252	126,2549
879,47	-7,891
879,687	33,53665
879,904	49,31856
880,122	49,31856
880,339	1,97275
880,556	120,33674
880,774	-25,64578
880,991	53,26403
881,208	88,77318
881,426	33,53665
881,643	-13,80925
881,86	145,98205
882,077	3,9455
882,294	100,60953
882,512	155,84561
882,729	88,77318
882,946	157,81832
883,163	15,78197
883,38	-11,8365
883,597	193,32705
883,814	92,71863
884,031	25,64569
884,248	65,10043
884,465	-31,56405
884,682	15,78197
884,899	15,78197
885,116	33,53665
885,333	104,55497
885,55	21,70021
885,766	76,93681
885,983	80,88227
886,2	-1,97275
886,417	13,80923
886,634	-19,72752
886,85	169,65458
887,067	21,70021
887,284	39,45487
887,501	3,9455
887,717	-27,61854
887,934	-3,9455
888,151	74,96408
888,367	-9,86375
888,584	130,20033
888,8	-3,9455
889,017	67,07316
889,234	51,29129
889,45	-71,01932
889,667	47,34582
889,883	39,45487
890,099	-0
890,316	3,9455
890,532	132,17305
890,749	17,75472
890,965	-21,70027
891,181	72,99135
891,398	82,855
891,614	-23,67302
891,83	128,22761
892,047	140,06391
892,263	-45,37337
892,479	55,23676
892,695	-9,86375
892,912	136,11848
893,128	86,80045
893,344	144,00934
893,56	128,22761
893,776	15,78197
893,992	128,22761
894,209	140,06391
894,425	92,71863
894,641	13,80923
894,857	25,64569
895,073	132,17305
895,289	138,09119
895,505	165,70916
895,721	-51,29165
895,937	116,3913
896,152	82,855
896,368	149,92748
896,584	9,86374
896,8	94,69136
897,016	-15,78201
897,232	7,89099
897,447	-29,59129
897,663	-29,59129
897,879	104,55497
898,095	-9,86375
898,31	80,88227
898,526	9,86374
898,742	80,88227
898,957	29,59117
899,173	59,18223
899,389	-33,53681
899,604	116,3913
899,82	88,77318
900,035	23,67295
900,251	149,92748
900,466	236,72643
900,682	110,47314
900,897	132,17305
901,113	21,70021
901,328	-25,64578
901,544	-1,97275
901,759	-5,91825
901,974	-15,78201
902,19	-78,9104
902,405	-63,12824
902,62	63,1277
902,836	155,84561
903,051	-37,48233
903,266	17,75472
903,482	5,91824
903,697	37,48213
903,912	11,83648
904,127	76,93681
904,342	144,00934
904,557	169,65458
904,773	74,96408
904,988	27,61843
905,203	7,89099
905,418	-21,70027
905,633	-98,63814
905,848	43,40035
906,063	-98,63814
906,278	72,99135
906,493	5,91824
906,708	-11,8365
906,923	27,61843
907,138	55,23676
907,352	65,10043
907,567	106,5277
907,782	15,78197
907,997	78,90954
908,212	-37,48233
908,427	69,04589
908,641	67,07316
908,856	-13,80925
909,071	84,82773
909,285	72,99135
909,5	86,80045
909,715	138,09119
909,929	-80,88317
910,144	3,9455
910,359	104,55497
910,573	5,91824
910,788	122,30946
911,002	35,50939
911,217	-15,78201
911,431	80,88227
911,646	-11,8365
911,86	74,96408
912,075	161,76374
912,289	-61,15548
912,504	-108,50204
912,718	110,47314
912,932	161,76374
913,147	-67,07378
913,361	76,93681
913,575	17,75472
913,79	215,02676
914,004	177,54541
914,218	102,58225
914,432	-63,12824
914,646	203,19056
914,861	-25,64578
915,075	169,65458
915,289	-37,48233
915,503	-21,70027
915,717	35,50939
915,931	90,74591
916,145	82,855
916,359	215,02676
916,573	179,51812
916,787	122,30946
917,001	145,98205
917,215	27,61843
917,429	13,80923
917,643	185,43623
917,857	74,96408
918,071	59,18223
918,285	130,20033
918,499	35,50939
918,713	7,89099
918,926	-7,891
919,14	63,1277
919,354	244,6172
919,568	67,07316
919,781	69,04589
919,995	-33,53681
920,209	5,91824
920,422	96,66408
920,636	27,61843
920,85	43,40035
921,063	11,83648
921,277	149,92748
921,49	-21,70027
921,704	169,65458
921,917	-39,45509
922,131	63,1277
922,344	104,55497
922,558	65,10043
922,771	55,23676
922,985	191,35434
923,198	33,53665
923,412	108,50042
923,625	45,37308
923,838	5,91824
924,052	-13,80925
924,265	100,60953
924,478	-74,96485
924,691	169,65458
924,905	165,70916
925,118	-9,86375
925,331	63,1277
925,544	7,89099
925,757	51,29129
925,971	-1,97275
926,184	-27,61854
926,397	-5,91825
926,61	33,53665
926,823	31,56391
927,036	185,43623
927,249	-39,45509
927,462	17,75472
927,675	25,64569
927,888	57,2095
928,101	-35,50957
928,314	140,06391
928,527	140,06391
928,74	13,80923
928,953	167,68187
929,165	31,56391
929,378	19,72746
929,591	145,98205
929,804	39,45487
930,017	100,60953
930,229	80,88227
930,442	149,92748
930,655	59,18223
930,867	21,70021
931,08	19,72746
931,293	-1,97275
931,505	-159,79454
931,718	59,18223
931,931	23,67295
932,143	39,45487
932,356	-19,72752
932,568	-86,80149
932,781	-35,50957
932,993	5,91824
933,206	-57,20995
933,418	-31,56405
933,631	179,51812
933,843	51,29129
934,055	7,89099
934,268	-106,52926
934,48	104,55497
934,692	-118,36595
934,905	161,76374
935,117	-53,26442
935,329	78,90954
935,541	187,40894
935,754	140,06391
935,966	110,47314
936,178	1,97275
936,39	-29,59129
936,602	-67,07378
936,814	43,40035
937,027	-53,26442
937,239	-53,26442
937,451	147,95476
937,663	63,1277
937,875	43,40035
938,087	21,70021
938,299	9,86374
938,511	118,36402
938,723	72,99135
938,935	7,89099
939,146	224,89025
939,358	96,66408
939,57	144,00934
939,782	33,53665
939,994	41,42761
940,206	189,38164
940,417	45,37308
940,629	41,42761
940,841	84,82773
941,053	92,71863
941,264	116,3913
941,476	67,07316
941,688	1,97275
941,899	130,20033
942,111	63,1277
942,323	-47,34613
942,534	-3,9455
942,746	120,33674
942,957	31,56391
943,169	45,37308
943,38	21,70021
943,592	-0
943,803	-9,86375
944,015	151,90019
944,226	-15,78201
944,437	98,63681
944,649	104,55497
944,86	-31,56405
945,071	61,15496
945,283	80,88227
945,494	19,72746
945,705	57,2095
945,917	140,06391
946,128	39,45487
946,339	76,93681
946,55	-15,78201
946,761	132,17305
946,973	55,23676
947,184	1,97275
947,395	-23,67302
947,606	-116,39316
947,817	102,58225
948,028	76,93681
948,239	1,97275
948,45	-29,59129
948,661	187,40894
948,872	120,33674
949,083	205,16326
949,294	9,86374
949,505	80,88227
949,716	157,81832
949,927	88,77318
950,138	116,3913
950,348	-41,42785
950,559	92,71863
950,77	76,93681
950,981	29,59117
951,191	153,8729
951,402	153,8729
951,613	51,29129
951,824	-55,23718
952,034	19,72746
952,245	78,90954
952,456	-31,56405
952,666	11,83648
952,877	175,5727
953,087	23,67295
953,298	-21,70027
953,508	9,86374
953,719	31,56391
953,929	100,60953
954,14	120,33674
954,35	17,75472
954,561	-5,91825
954,771	132,17305
954,982	3,9455
955,192	84,82773
955,402	128,22761
955,613	96,66408
955,823	-78,9104
956,033	15,78197
956,243	110,47314
956,454	100,60953
956,664	9,86374
956,874	195,29975
957,084	65,10043
957,294	-84,82871
957,505	55,23676
957,715	25,64569
957,925	106,5277
958,135	112,44586
958,345	33,53665
958,555	84,82773
958,765	41,42761
958,975	55,23676
959,185	-1,97275
959,395	132,17305
959,605	90,74591
959,815	84,82773
960,025	29,59117
960,235	74,96408
960,445	11,83648
960,654	-23,67302
960,864	118,36402
961,074	-19,72752
961,284	-39,45509
961,494	74,96408
961,703	108,50042
961,913	-21,70027
962,123	11,83648
962,332	-5,91825
962,542	-130,20266
962,752	-63,12824
962,961	191,35434
963,171	63,1277
963,38	159,79103
963,59	-39,45509
963,8	167,68187
964,009	37,48213
964,219	69,04589
964,428	-53,26442
964,637	175,5727
964,847	41,42761
965,056	181,49082
965,266	35,50939
965,475	108,50042
965,684	1,97275
965,894	17,75472
966,103	147,95476
966,312	-165,71294
966,522	-15,78201
966,731	-37,48233
966,94	53,26403
967,149	35,50939
967,359	61,15496
967,568	57,2095
967,777	5,91824
967,986	102,58225
968,195	252,50797
968,404	-7,891
968,613	29,59117
968,822	74,96408
969,031	41,42761
969,24	147,95476
969,449	5,91824
969,658	7,89099
969,867	106,5277
970,076	53,26403
970,285	94,69136
970,494	11,83648
970,703	104,55497
970,912	15,78197
971,12	7,89099
971,329	13,80923
971,538	122,30946
971,747	61,15496
971,956	13,80923
972,164	29,59117
972,373	142,03662
972,582	27,61843
972,79	-23,67302
972,999	-11,8365
973,208	19,72746
973,416	-65,10101
973,625	31,56391
973,833	80,88227
974,042	86,80045
974,25	31,56391
974,459	-15,78201
974,667	136,11848
974,876	159,79103
975,084	-61,15548
975,293	155,84561
975,501	-116,39316
975,709	53,26403
975,918	116,3913
976,126	-96,66536
976,334	177,54541
976,543	-147,95777
976,751	197,27245
976,959	-90,74704
977,168	-55,23718
977,376	67,07316
977,584	45,37308
977,792	88,77318
978	35,50939
978,208	-33,53681
978,416	35,50939
978,625	51,29129
978,833	151,90019
979,041	31,56391
979,249	-23,67302
979,457	94,69136
979,665	63,1277
979,873	-57,20995
980,081	9,86374
980,289	-57,20995
980,496	41,42761
980,704	-80,88317
980,912	55,23676
981,12	-1,97275
981,328	67,07316
981,536	-29,59129
981,743	110,47314
981,951	100,60953
982,159	31,56391
982,367	7,89099
982,574	41,42761
982,782	199,24516
982,99	130,20033
983,197	104,55497
983,405	21,70021
983,613	-57,20995
983,82	-17,75476
984,028	-55,23718
984,235	57,2095
984,443	-51,29165
984,65	173,59999
984,858	-98,63814
985,065	140,06391
985,273	-191,35939
985,48	-51,29165
985,687	92,71863
985,895	86,80045
986,102	102,58225
986,31	-27,61854
986,517	78,90954
986,724	102,58225
986,931	-5,91825
987,139	100,60953
987,346	86,80045
987,553	-33,53681
987,76	-13,80925
987,967	37,48213
988,175	23,67295
988,382	53,26403
988,589	153,8729
988,796	-9,86375
989,003	86,80045
989,21	25,64569
989,417	-43,40061
989,624	-23,67302
989,831	43,40035
990,038	65,10043
990,245	49,31856
990,452	19,72746
990,659	13,80923
990,866	71,01862
991,073	65,10043
991,279	57,2095
991,486	67,07316
991,693	-74,96485
991,9	-29,59129
992,107	21,70021
992,313	124,28218
992,52	-27,61854
992,727	35,50939
992,933	-25,64578
993,14	47,34582
993,347	19,72746
993,553	51,29129
993,76	90,74591
993,966	23,67295
994,173	96,66408
994,38	122,30946
994,586	35,50939
994,793	149,92748
994,999	17,75472
995,205	61,15496
995,412	-15,78201
995,618	-43,40061
995,825	218,97216
996,031	-120,33873
996,237	-27,61854
996,444	80,88227
996,65	173,59999
996,856	-23,67302
997,063	114,41858
997,269	86,80045
997,475	96,66408
997,681	45,37308
997,887	33,53665
998,094	-63,12824
998,3	45,37308
998,506	84,82773
998,712	-98,63814
998,918	104,55497
999,124	13,80923
999,33	-71,01932
999,536	-19,72752
999,742	118,36402
999,948	1,97275
1000,154	82,855
1000,36	33,53665
1000,566	43,40035
1000,772	-13,80925
1000,978	124,28218
1001,184	153,8729
1001,389	100,60953
1001,595	51,29129
1001,801	80,88227
1002,007	-0
1002,212	-0
1002,418	78,90954
1002,624	15,78197
1002,83	-21,70027
1003,035	53,26403
1003,241	76,93681
1003,447	179,51812
1003,652	96,66408
1003,858	69,04589
1004,063	82,855
1004,269	19,72746
1004,474	142,03662
1004,68	41,42761
1004,885	55,23676
1005,091	27,61843
1005,296	-3,9455
1005,502	155,84561
1005,707	-76,93763
1005,912	140,06391
1006,118	78,90954
1006,323	106,5277
1006,528	35,50939
1006,734	92,71863
1006,939	39,45487
1007,144	72,99135
1007,35	-7,891
1007,555	-11,8365
1007,76	35,50939
1007,965	61,15496
1008,17	13,80923
1008,375	49,31856
1008,581	-0
1008,786	43,40035
1008,991	35,50939
1009,196	35,50939
1009,401	116,3913
1009,606	21,70021
1009,811	98,63681
1010,016	67,07316
1010,221	114,41858
1010,426	-31,56405
1010,63	27,61843
1010,835	3,9455
1011,04	-142,0394
1011,245	138,09119
1011,45	-41,42785
1011,655	-11,8365
1011,859	114,41858
1012,064	140,06391
1012,269	90,74591
1012,474	-19,72752
1012,678	71,01862
1012,883	-90,74704
1013,088	-43,40061
1013,292	-0
1013,497	98,63681
1013,702	-33,53681
1013,906	15,78197
1014,111	71,01862
1014,315	-203,19625
1014,52	63,1277
1014,724	63,1277
1014,929	5,91824
1015,133	80,88227
1015,338	88,77318
1015,542	104,55497
1015,746	1,97275
1015,951	236,72643
1016,155	53,26403
1016,359	-29,59129
1016,564	17,75472
1016,768	-29,59129
1016,972	1,97275
1017,176	-43,40061
1017,381	136,11848
1017,585	222,91755
1017,789	112,44586
1017,993	17,75472
1018,197	7,89099
1018,401	9,86374
1018,606	132,17305
1018,81	53,26403
1019,014	25,64569
1019,218	65,10043
1019,422	84,82773
1019,626	55,23676
1019,83	-7,891
1020,034	-57,20995
1020,238	41,42761
1020,441	71,01862
1020,645	-41,42785
1020,849	-29,59129
1021,053	-0
1021,257	45,37308
1021,461	25,64569
1021,664	3,9455
1021,868	112,44586
1022,072	80,88227
1022,276	82,855
1022,479	159,79103
1022,683	55,23676
1022,887	104,55497
1023,09	-57,20995
1023,294	-3,9455
1023,498	49,31856
1023,701	84,82773
1023,905	96,66408
1024,108	23,67295
1024,312	-55,23718
1024,515	136,11848
1024,719	142,03662
1024,922	96,66408
1025,126	80,88227
1025,329	104,55497
1025,532	41,42761
1025,736	80,88227
1025,939	57,2095
1026,142	13,80923
1026,346	171,62729
1026,549	96,66408
1026,752	25,64569
1026,956	112,44586
1027,159	23,67295
1027,362	74,96408
1027,565	61,15496
1027,768	69,04589
1027,971	222,91755
1028,175	96,66408
1028,378	-35,50957
1028,581	134,14576
1028,784	-98,63814
1028,987	9,86374
1029,19	9,86374
1029,393	-15,78201
1029,596	88,77318
1029,799	173,59999
1030,002	104,55497
1030,205	-29,59129
1030,408	136,11848
1030,61	5,91824
1030,813	124,28218
1031,016	33,53665
1031,219	100,60953
1031,422	-25,64578
1031,624	173,59999
1031,827	51,29129
1032,03	-33,53681
1032,233	59,18223
1032,435	-11,8365
1032,638	187,40894
1032,841	220,94486
1033,043	-7,891
1033,246	-59,18271
1033,448	3,9455
1033,651	181,49082
1033,853	147,95476
1034,056	136,11848
1034,258	78,90954
1034,461	39,45487
1034,663	65,10043
1034,866	142,03662
1035,068	92,71863
1035,271	-9,86375
1035,473	65,10043
1035,675	144,00934
1035,878	120,33674
1036,08	-15,78201
1036,282	-7,891
1036,484	199,24516
1036,687	37,48213
1036,889	-29,59129
1037,091	104,55497
1037,293	140,06391
1037,495	61,15496
1037,698	-71,01932
1037,9	5,91824
1038,102	136,11848
1038,304	189,38164
1038,506	145,98205
1038,708	-5,91825
1038,91	-27,61854
1039,112	80,88227
1039,314	-5,91825
1039,516	122,30946
1039,718	-49,31889
1039,92	39,45487
1040,122	-65,10101
1040,323	45,37308
1040,525	7,89099
1040,727	71,01862
1040,929	72,99135
1041,131	216,99946
1041,333	78,90954
1041,534	57,2095
1041,736	175,5727
1041,938	69,04589
1042,139	94,69136
1042,341	128,22761
1042,543	-88,77426
1042,744	175,5727
1042,946	-63,12824
1043,147	41,42761
1043,349	45,37308
1043,55	51,29129
1043,752	80,88227
1043,953	-69,04655
1044,155	-1,97275
1044,356	-55,23718
1044,558	134,14576
1044,759	1,97275
1044,961	-5,91825
1045,162	-3,9455
1045,363	155,84561
1045,565	-72,99208
1045,766	112,44586
1045,967	49,31856
1046,168	161,76374
1046,37	-43,40061
1046,571	63,1277
1046,772	-92,71981
1046,973	207,13596
1047,174	-7,891
1047,376	-63,12824
1047,577	69,04589
1047,778	37,48213
1047,979	69,04589
1048,18	112,44586
1048,381	13,80923
1048,582	205,16326
1048,783	126,2549
1048,984	94,69136
1049,185	155,84561
1049,386	78,90954
1049,587	163,73645
1049,788	69,04589
1049,988	13,80923
1050,189	27,61843
1050,39	-1,97275
1050,591	78,90954
1050,792	35,50939
1050,992	71,01862
1051,193	-43,40061
1051,394	59,18223
1051,594	17,75472
1051,795	55,23676
1051,996	5,91824
1052,196	-11,8365
1052,397	43,40035
1052,598	45,37308
1052,798	45,37308
