Data from Philips_4000K_7,3W_1535Lumen_250ms_1__1__15-25-36-357.txt Node

Date: Thu Dec 18 15:25:36 CET 2025
User: Stefan
Spectrometer: ?
Trigger mode: 0
Integration Time (sec): 2,500000E-1
Scans to average: 1
Electric dark correction enabled: true
Nonlinearity correction enabled: true
Boxcar width: 0
XAxis mode: Wavelengths
Number of Pixels in Spectrum: 3648
>>>>>Begin Spectral Data<<<<<
195,033	-344,74745
195,299	-344,74745
195,565	-344,74745
195,831	-326,99167
196,098	-358,55754
196,364	150,42065
196,63	24,16613
196,896	-27,12535
197,162	41,92079
197,428	77,43
197,694	63,62088
197,96	-90,25384
198,226	30,08436
198,492	-66,58059
198,757	-72,49889
199,023	-113,92718
199,289	-17,26157
199,555	262,8646
199,821	73,48454
200,087	73,48454
200,353	148,44794
200,618	176,06588
200,884	221,43803
201,15	83,34818
201,416	75,45727
201,682	73,48454
201,947	229,32882
202,213	114,91176
202,479	34,02984
202,744	6,41143
203,01	91,23909
203,276	126,74808
203,541	128,72079
203,807	174,09317
204,073	93,21181
204,338	152,39337
204,604	114,91176
204,869	122,80264
205,135	59,67541
205,401	105,04816
205,666	118,8572
205,932	207,62914
206,197	136,61166
206,463	85,32091
206,728	146,47523
206,994	83,34818
207,259	158,3115
207,524	170,14776
207,79	144,50252
208,055	132,66623
208,321	132,66623
208,586	142,5298
208,851	-9,37056
209,117	185,92941
209,382	10,35692
209,647	97,15726
209,913	379,25273
210,178	243,13768
210,443	136,61166
210,708	67,56634
210,974	47,83901
211,239	197,76563
211,504	183,9567
211,769	245,11038
212,034	164,22963
212,3	24,16613
212,565	-38,9619
212,83	174,09317
213,095	95,18454
213,36	124,77536
213,625	0,49319
213,89	134,63894
214,155	185,92941
214,42	178,03859
214,685	108,9936
214,95	162,25692
215,215	201,71103
215,48	231,30151
215,745	176,06588
216,01	128,72079
216,275	243,13768
216,54	207,62914
216,805	55,72995
217,07	59,67541
217,335	39,94806
217,6	219,46533
217,864	71,51181
218,129	122,80264
218,394	140,55709
218,659	32,0571
218,924	172,12046
219,188	103,07543
219,453	164,22963
219,718	243,13768
219,983	130,69351
220,247	152,39337
220,512	221,43803
220,777	353,60798
221,041	219,46533
221,306	294,4276
221,571	79,40272
221,835	189,87482
222,1	97,15726
222,364	77,43
222,629	233,27421
222,894	83,34818
223,158	43,89353
223,423	126,74808
223,687	120,82992
223,952	65,59361
224,216	77,43
224,481	266,80998
224,745	83,34818
225,009	87,29363
225,274	229,32882
225,538	211,57454
225,803	223,41073
226,067	128,72079
226,331	87,29363
226,596	43,89353
226,86	254,97384
227,124	264,83729
227,389	150,42065
227,653	197,76563
227,917	172,12046
228,181	110,96632
228,446	160,28421
228,71	32,0571
228,974	185,92941
229,238	302,31833
229,502	79,40272
229,767	87,29363
230,031	142,5298
230,295	231,30151
230,559	126,74808
230,823	158,3115
231,087	134,63894
231,351	430,54208
231,615	367,4167
231,879	114,91176
232,143	189,87482
232,407	221,43803
232,671	85,32091
232,935	128,72079
233,199	41,92079
233,463	146,47523
233,727	130,69351
233,991	61,64815
234,255	185,92941
234,519	237,2196
234,783	81,37545
235,047	-17,26157
235,311	180,01129
235,574	18,2479
235,838	122,80264
236,102	114,91176
236,366	274,70074
236,63	37,97532
236,893	122,80264
237,157	183,9567
237,421	105,04816
237,684	144,50252
237,948	89,26636
238,212	144,50252
238,475	225,38343
238,739	201,71103
239,003	185,92941
239,266	256,94653
239,53	174,09317
239,794	73,48454
240,057	101,10271
240,321	112,93904
240,584	160,28421
240,848	122,80264
241,111	47,83901
241,375	124,77536
241,638	320,07247
241,902	154,36608
242,165	231,30151
242,429	107,02088
242,692	180,01129
242,955	81,37545
243,219	254,97384
243,482	134,63894
243,746	37,97532
244,009	164,22963
244,272	118,8572
244,536	181,984
244,799	245,11038
245,062	140,55709
245,325	152,39337
245,589	32,0571
245,852	83,34818
246,115	225,38343
246,378	-9,37056
246,641	107,02088
246,905	154,36608
247,168	97,15726
247,431	203,68374
247,694	112,93904
247,957	183,9567
248,22	187,90211
248,483	99,12999
248,746	148,44794
249,009	16,27516
249,273	150,42065
249,536	73,48454
249,799	-21,20708
250,062	108,9936
250,324	150,42065
250,587	174,09317
250,85	8,38418
251,113	122,80264
251,376	180,01129
251,639	122,80264
251,902	126,74808
252,165	379,25273
252,428	156,33879
252,691	345,71728
252,953	176,06588
253,216	178,03859
253,479	181,984
253,742	61,64815
254,005	30,08436
254,267	150,42065
254,53	207,62914
254,793	268,78267
255,055	191,84752
255,318	191,84752
255,581	185,92941
255,843	39,94806
256,106	122,80264
256,369	146,47523
256,631	103,07543
256,894	57,70268
257,157	181,984
257,419	-68,55335
257,682	262,8646
257,944	260,89191
258,207	138,58437
258,469	110,96632
258,732	130,69351
258,994	67,56634
259,257	39,94806
259,519	89,26636
259,781	201,71103
260,044	61,64815
260,306	81,37545
260,569	32,0571
260,831	170,14776
261,093	164,22963
261,356	223,41073
261,618	170,14776
261,88	118,8572
262,143	93,21181
262,405	-9,37056
262,667	197,76563
262,929	120,82992
263,192	312,18174
263,454	-80,38998
263,716	14,30242
263,978	55,72995
264,24	193,82022
264,502	41,92079
264,765	187,90211
265,027	156,33879
265,289	166,20234
265,551	124,77536
265,813	118,8572
266,075	116,88448
266,337	136,61166
266,599	51,78448
266,861	168,17505
267,123	138,58437
267,385	227,35612
267,647	63,62088
267,909	73,48454
268,171	154,36608
268,433	45,86627
268,695	215,51994
268,957	170,14776
269,219	55,72995
269,48	223,41073
269,742	136,61166
270,004	107,02088
270,266	81,37545
270,528	118,8572
270,789	154,36608
271,051	162,25692
271,313	266,80998
271,575	158,3115
271,836	134,63894
272,098	136,61166
272,36	262,8646
272,621	136,61166
272,883	47,83901
273,145	107,02088
273,406	75,45727
273,668	47,83901
273,93	28,11162
274,191	103,07543
274,453	69,53908
274,714	148,44794
274,976	158,3115
275,237	93,21181
275,499	71,51181
275,76	112,93904
276,022	172,12046
276,283	185,92941
276,545	61,64815
276,806	39,94806
277,068	174,09317
277,329	223,41073
277,59	81,37545
277,852	57,70268
278,113	83,34818
278,374	185,92941
278,636	217,49263
278,897	55,72995
279,158	134,63894
279,42	85,32091
279,681	235,24691
279,942	239,1923
280,203	166,20234
280,464	122,80264
280,726	148,44794
280,987	-17,26157
281,248	150,42065
281,509	99,12999
281,77	140,55709
282,031	112,93904
282,292	160,28421
282,554	181,984
282,815	73,48454
283,076	168,17505
283,337	122,80264
283,598	-42,90742
283,859	166,20234
284,12	134,63894
284,381	181,984
284,642	81,37545
284,903	136,61166
285,164	4,43868
285,424	205,65644
285,685	217,49263
285,946	87,29363
286,207	170,14776
286,468	152,39337
286,729	24,16613
286,99	239,1923
287,25	43,89353
287,511	124,77536
287,772	-11,34331
288,033	134,63894
288,294	103,07543
288,554	69,53908
288,815	164,22963
289,076	168,17505
289,336	47,83901
289,597	91,23909
289,858	270,75536
290,118	97,15726
290,379	130,69351
290,639	99,12999
290,9	49,81174
291,161	36,00258
291,421	174,09317
291,682	120,82992
291,942	176,06588
292,203	87,29363
292,463	77,43
292,724	118,8572
292,984	103,07543
293,245	189,87482
293,505	142,5298
293,766	152,39337
294,026	844,79687
294,286	264,83729
294,547	166,20234
294,807	185,92941
295,067	150,42065
295,328	170,14776
295,588	140,55709
295,848	59,67541
296,109	156,33879
296,369	189,87482
296,629	148,44794
296,889	274,70074
297,15	183,9567
297,41	203,68374
297,67	142,5298
297,93	172,12046
298,19	120,82992
298,45	154,36608
298,711	85,32091
298,971	150,42065
299,231	93,21181
299,491	193,82022
299,751	148,44794
300,011	160,28421
300,271	122,80264
300,531	199,73833
300,791	176,06588
301,051	49,81174
301,311	146,47523
301,571	191,84752
301,831	225,38343
302,091	126,74808
302,351	-27,12535
302,61	377,28006
302,87	20,22065
303,13	172,12046
303,39	47,83901
303,65	136,61166
303,91	89,26636
304,169	41,92079
304,429	180,01129
304,689	130,69351
304,949	422,65142
305,209	209,60184
305,468	181,984
305,728	18,2479
305,988	45,86627
306,247	152,39337
306,507	290,48223
306,767	292,45491
307,026	79,40272
307,286	172,12046
307,545	95,18454
307,805	120,82992
308,065	174,09317
308,324	-35,01638
308,584	168,17505
308,843	122,80264
309,103	71,51181
309,362	150,42065
309,622	73,48454
309,881	130,69351
310,14	223,41073
310,4	213,54724
310,659	245,11038
310,919	130,69351
311,178	191,84752
311,437	229,32882
311,697	43,89353
311,956	114,91176
312,215	73,48454
312,475	71,51181
312,734	209,60184
312,993	116,88448
313,252	140,55709
313,512	162,25692
313,771	205,65644
314,03	239,1923
314,289	227,35612
314,548	270,75536
314,808	254,97384
315,067	185,92941
315,326	8,38418
315,585	160,28421
315,844	209,60184
316,103	288,50954
316,362	41,92079
316,621	221,43803
316,88	288,50954
317,139	101,10271
317,398	61,64815
317,657	55,72995
317,916	99,12999
318,175	105,04816
318,434	124,77536
318,693	105,04816
318,952	150,42065
319,211	61,64815
319,47	8,38418
319,729	41,92079
319,987	114,91176
320,246	20,22065
320,505	322,04515
320,764	114,91176
321,023	67,56634
321,281	195,79293
321,54	180,01129
321,799	81,37545
322,058	30,08436
322,316	191,84752
322,575	77,43
322,834	112,93904
323,092	150,42065
323,351	215,51994
323,609	146,47523
323,868	199,73833
324,127	103,07543
324,385	142,5298
324,644	138,58437
324,902	140,55709
325,161	209,60184
325,419	146,47523
325,678	-50,79846
325,936	128,72079
326,195	152,39337
326,453	203,68374
326,712	116,88448
326,97	124,77536
327,228	138,58437
327,487	213,54724
327,745	101,10271
328,004	247,08307
328,262	81,37545
328,52	152,39337
328,779	59,67541
329,037	152,39337
329,295	118,8572
329,553	178,03859
329,812	114,91176
330,07	215,51994
330,328	-31,07086
330,586	118,8572
330,844	105,04816
331,103	6,41143
331,361	241,16499
331,619	118,8572
331,877	95,18454
332,135	91,23909
332,393	247,08307
332,651	231,30151
332,909	178,03859
333,167	79,40272
333,425	101,10271
333,683	95,18454
333,941	241,16499
334,199	215,51994
334,457	103,07543
334,715	172,12046
334,973	138,58437
335,231	61,64815
335,489	63,62088
335,747	138,58437
336,005	105,04816
336,262	18,2479
336,52	195,79293
336,778	103,07543
337,036	215,51994
337,294	225,38343
337,551	87,29363
337,809	116,88448
338,067	51,78448
338,325	146,47523
338,582	132,66623
338,84	99,12999
339,098	254,97384
339,355	57,70268
339,613	191,84752
339,871	191,84752
340,128	124,77536
340,386	91,23909
340,643	245,11038
340,901	221,43803
341,159	213,54724
341,416	132,66623
341,674	34,02984
341,931	209,60184
342,189	51,78448
342,446	114,91176
342,703	180,01129
342,961	241,16499
343,218	203,68374
343,476	191,84752
343,733	37,97532
343,99	81,37545
344,248	266,80998
344,505	211,57454
344,762	197,76563
345,02	97,15726
345,277	55,72995
345,534	132,66623
345,792	199,73833
346,049	95,18454
346,306	146,47523
346,563	32,0571
346,82	112,93904
347,078	118,8572
347,335	178,03859
347,592	302,31833
347,849	241,16499
348,106	39,94806
348,363	67,56634
348,62	6,41143
348,877	170,14776
349,135	128,72079
349,392	122,80264
349,649	160,28421
349,906	112,93904
350,163	227,35612
350,42	130,69351
350,676	128,72079
350,933	87,29363
351,19	213,54724
351,447	22,19339
351,704	61,64815
351,961	114,91176
352,218	185,92941
352,475	193,82022
352,732	81,37545
352,988	57,70268
353,245	290,48223
353,502	18,2479
353,759	176,06588
354,015	181,984
354,272	193,82022
354,529	57,70268
354,786	87,29363
355,042	288,50954
355,299	142,5298
355,556	195,79293
355,812	264,83729
356,069	32,0571
356,325	187,90211
356,582	189,87482
356,839	176,06588
357,095	176,06588
357,352	324,01783
357,608	144,50252
357,865	75,45727
358,121	170,14776
358,378	245,11038
358,634	276,67342
358,891	-42,90742
359,147	140,55709
359,404	187,90211
359,66	276,67342
359,916	213,54724
360,173	148,44794
360,429	172,12046
360,685	164,22963
360,942	272,72805
361,198	158,3115
361,454	243,13768
361,711	132,66623
361,967	108,9936
362,223	120,82992
362,479	264,83729
362,735	247,08307
362,992	69,53908
363,248	211,57454
363,504	87,29363
363,76	144,50252
364,016	107,02088
364,272	191,84752
364,528	77,43
364,785	55,72995
365,041	197,76563
365,297	183,9567
365,553	39,94806
365,809	227,35612
366,065	229,32882
366,321	87,29363
366,577	170,14776
366,833	71,51181
367,089	132,66623
367,344	233,27421
367,6	79,40272
367,856	223,41073
368,112	170,14776
368,368	97,15726
368,624	-5,42506
368,88	138,58437
369,135	170,14776
369,391	168,17505
369,647	162,25692
369,903	280,6188
370,158	176,06588
370,414	215,51994
370,67	36,00258
370,926	97,15726
371,181	77,43
371,437	268,78267
371,693	170,14776
371,948	251,02846
372,204	107,02088
372,459	77,43
372,715	189,87482
372,971	172,12046
373,226	93,21181
373,482	144,50252
373,737	235,24691
373,993	122,80264
374,248	93,21181
374,504	180,01129
374,759	103,07543
375,015	227,35612
375,27	211,57454
375,525	211,57454
375,781	298,37297
376,036	213,54724
376,291	251,02846
376,547	116,88448
376,802	183,9567
377,057	247,08307
377,313	16,27516
377,568	195,79293
377,823	89,26636
378,079	130,69351
378,334	158,3115
378,589	146,47523
378,844	195,79293
379,099	249,05576
379,354	69,53908
379,61	138,58437
379,865	286,53686
380,12	53,75721
380,375	168,17505
380,63	274,70074
380,885	195,79293
381,14	268,78267
381,395	93,21181
381,65	181,984
381,905	45,86627
382,16	385,17074
382,415	75,45727
382,67	65,59361
382,925	87,29363
383,18	176,06588
383,435	195,79293
383,69	176,06588
383,945	150,42065
384,2	166,20234
384,454	280,6188
384,709	144,50252
384,964	138,58437
385,219	178,03859
385,474	221,43803
385,728	203,68374
385,983	284,56417
386,238	215,51994
386,493	164,22963
386,747	185,92941
387,002	282,59148
387,257	87,29363
387,511	253,00115
387,766	61,64815
388,02	223,41073
388,275	302,31833
388,53	142,5298
388,784	213,54724
389,039	105,04816
389,293	209,60184
389,548	193,82022
389,802	197,76563
390,057	71,51181
390,311	367,4167
390,566	144,50252
390,82	101,10271
391,075	233,27421
391,329	107,02088
391,583	247,08307
391,838	107,02088
392,092	140,55709
392,346	231,30151
392,601	176,06588
392,855	331,90854
393,109	254,97384
393,364	180,01129
393,618	201,71103
393,872	99,12999
394,126	181,984
394,381	233,27421
394,635	314,15443
394,889	239,1923
395,143	128,72079
395,397	225,38343
395,651	341,77193
395,905	77,43
396,16	264,83729
396,414	245,11038
396,668	148,44794
396,922	166,20234
397,176	120,82992
397,43	235,24691
397,684	67,56634
397,938	227,35612
398,192	276,67342
398,446	268,78267
398,7	156,33879
398,954	286,53686
399,207	278,64611
399,461	331,90854
399,715	213,54724
399,969	132,66623
400,223	178,03859
400,477	320,07247
400,731	245,11038
400,984	201,71103
401,238	251,02846
401,492	270,75536
401,746	195,79293
401,999	170,14776
402,253	314,15443
402,507	128,72079
402,76	146,47523
403,014	266,80998
403,268	286,53686
403,521	357,55333
403,775	134,63894
404,029	365,44403
404,282	243,13768
404,536	351,63531
404,789	454,21403
405,043	221,43803
405,296	320,07247
405,55	199,73833
405,803	365,44403
406,057	404,89743
406,31	402,92476
406,564	400,95209
406,817	312,18174
407,07	367,4167
407,324	312,18174
407,577	320,07247
407,83	389,11608
408,084	357,55333
408,337	503,53046
408,59	448,29604
408,844	377,28006
409,097	418,70609
409,35	489,72187
409,603	306,2637
409,857	389,11608
410,11	531,1476
410,363	442,37806
410,616	497,6125
410,869	369,38937
411,123	647,53367
411,376	422,65142
411,629	560,73735
411,882	454,21403
412,135	389,11608
412,388	600,19027
412,641	594,27233
412,894	596,24498
413,147	827,04324
413,4	647,53367
413,653	647,53367
413,906	651,47895
414,159	807,31697
414,412	594,27233
414,665	734,32966
414,918	773,78228
415,17	700,79488
415,423	769,83702
415,676	801,39909
415,929	710,65806
416,182	967,09944
416,435	925,67442
416,687	1016,4149
416,94	846,7695
417,193	1073,62076
417,446	1083,48383
417,698	1057,83984
417,951	1055,86722
418,204	1152,5253
418,456	1089,40167
418,709	1152,5253
418,962	1093,3469
419,214	1233,40235
419,467	1337,95059
419,719	1266,9367
419,972	1369,51229
420,225	1335,97798
420,477	1479,97814
420,73	1485,89595
420,982	1572,69042
421,235	1643,70398
421,487	1539,1562
421,74	1639,75878
421,992	1886,33285
422,244	1681,18332
422,497	1783,75821
422,749	1913,94904
423,002	1959,31846
423,254	2024,41358
423,506	2138,82277
423,759	2261,12157
424,011	2341,99611
424,263	2367,63917
424,515	2464,29336
424,768	2434,70542
425,02	2448,51313
425,272	2444,56807
425,524	2651,68195
425,776	2801,59031
426,029	2894,29547
426,281	2967,27534
426,533	2965,30292
426,785	2864,70884
427,037	3152,68008
427,289	3063,92316
427,541	3247,35263
427,793	3272,99283
428,045	3219,73997
428,297	3600,38647
428,549	3507,6931
428,801	3655,60706
429,053	4089,45325
429,305	3819,29191
429,557	3988,88494
429,809	4140,72205
430,061	4087,48135
430,313	4170,29979
430,565	4406,91001
430,817	4231,42613
431,069	4270,86174
431,32	4627,72575
431,572	4795,2945
431,824	4771,63854
432,076	4947,08021
432,328	4915,54129
432,579	5177,69231
432,831	5477,24481
433,083	5224,99366
433,334	5439,80378
433,586	5455,56854
433,838	5688,07975
434,089	6015,10783
434,341	6022,98705
434,593	6245,55474
434,844	6162,83507
435,096	6318,42218
435,347	6588,18933
435,599	6521,24574
435,851	6773,24752
436,102	6590,15819
436,354	7070,45397
436,605	7121,61979
436,856	7253,45787
437,108	7595,75734
437,359	7808,15385
437,611	7603,62479
437,862	7963,48493
438,114	7989,04301
438,365	8234,75342
438,616	8619,87521
438,868	8293,71286
439,119	8914,4802
439,37	8753,44388
439,621	9305,13939
439,873	9571,99786
440,124	9526,87464
440,375	9550,41756
440,626	9968,16769
440,878	9740,69287
441,129	10211,24347
441,38	9981,89212
441,631	10914,46586
441,882	11043,66293
442,133	10977,11025
442,385	11090,63695
442,636	11118,03679
442,887	11927,7291
443,138	11573,86724
443,389	11693,14795
443,64	12617,25175
443,891	12439,57633
444,142	12504,01426
444,393	13224,06896
444,644	13495,08212
444,895	14036,73984
445,146	14396,92685
445,396	13578,89573
445,647	13923,77239
445,898	14614,88339
446,149	15021,4027
446,4	15419,89046
446,651	15326,60793
446,902	15264,41218
447,152	16165,68374
447,403	16930,082
447,654	17067,74656
447,905	16792,393
448,155	17335,25185
448,406	17614,29529
448,657	18162,43461
448,907	18280,5425
449,158	19056,62026
449,409	17716,97584
449,659	18131,4531
449,91	18104,34345
450,16	18065,61403
450,411	19186,2368
450,662	19271,35067
450,912	18367,66214
451,163	18598,00905
451,413	18276,67034
451,664	19288,75962
451,914	19060,48961
452,165	18528,3297
452,415	18464,45286
452,665	18199,22386
452,916	18752,8357
453,166	17654,98149
453,417	16627,52124
453,667	17623,98265
453,917	17218,95609
454,168	16802,09022
454,418	15755,98726
454,668	16697,35369
454,918	15635,55582
455,169	15528,70336
455,419	15173,05136
455,669	14955,28818
455,919	14455,3156
456,17	14038,68737
456,42	13841,95517
456,67	13483,38626
456,92	12925,61618
457,17	12476,67781
457,42	12170,03252
457,67	12769,50242
457,92	11581,68966
458,17	11180,6604
458,421	11390,01129
458,671	10759,78535
458,921	10593,31405
459,171	10608,98382
459,421	10193,60393
459,67	9654,38905
459,92	9648,5043
460,17	9460,16532
460,42	9354,20197
460,67	9452,31674
460,92	8796,65218
461,17	9010,69238
461,42	8818,25539
461,67	8914,4802
461,919	8291,74761
462,169	8564,8695
462,419	8124,68427
462,669	7914,3326
462,918	7991,00898
463,168	8205,27208
463,418	8020,49803
463,668	7501,34261
463,917	7800,28823
464,167	8024,42983
464,417	7568,22073
464,666	7570,18766
464,916	7471,83599
465,165	7715,72835
465,415	7540,68328
465,664	7139,33042
465,914	7227,87875
466,164	7009,44512
466,413	7210,16973
466,663	6842,14403
466,912	7692,12878
467,161	7033,06189
467,411	6698,44056
467,66	6566,53154
467,91	6509,43175
468,159	6497,61764
468,408	6655,12889
468,658	6448,39087
468,907	6225,86008
469,157	6192,37845
469,406	6225,86008
469,655	6021,01725
469,904	5981,62064
470,154	5912,67375
470,403	5589,56245
470,652	5707,78241
470,901	5479,21537
471,15	5467,392
471,4	5433,89196
471,649	5477,24481
471,898	5126,44772
472,147	5236,81879
472,396	5021,98305
472,645	5288,06009
472,894	4931,31082
473,143	4850,49065
473,392	4846,54812
473,641	4941,1667
473,89	4801,20844
474,139	4694,75484
474,388	4586,32442
474,637	4647,4404
474,886	4473,94556
475,135	4353,6746
475,384	4335,92921
475,633	4529,14989
475,882	4418,73995
476,131	4190,01811
476,38	4345,78777
476,628	4373,39155
476,877	4375,36324
477,126	4442,39965
477,375	4308,32503
477,624	4353,6746
477,872	4292,55108
478,121	4097,34082
478,37	4126,919
478,618	4280,72055
478,867	4093,39704
479,116	4312,2685
479,364	4454,22942
479,613	4146,63763
479,862	4337,90093
480,11	4278,74879
480,359	4306,35329
480,607	4231,42613
480,856	4333,95749
481,104	4448,31454
481,353	4324,09888
481,601	4404,93835
481,85	4331,98577
482,098	4414,79665
482,347	4460,14428
482,595	4521,26364
482,844	4714,46887
483,092	4454,22942
483,34	4582,38139
483,589	4675,04062
483,837	4615,89688
484,085	4633,64017
484,334	4838,66303
484,582	4673,06918
484,83	4771,63854
485,078	4887,94431
485,327	4785,43788
485,575	4757,83911
485,823	4966,79178
486,071	5043,66489
486,319	4968,76292
486,568	5347,18269
486,816	5179,66322
487,064	5181,63413
487,312	5144,1864
487,56	5445,71558
487,808	5197,40136
488,056	5544,2423
488,304	5418,12699
488,552	5672,31743
488,8	5475,27426
489,048	5701,87164
489,296	5768,85894
489,544	5674,28773
489,792	5861,45376
490,04	5849,63349
490,288	5894,94397
490,536	6082,07963
490,784	6089,95844
491,031	6357,80815
491,279	6316,45285
491,527	6468,08183
491,775	6570,46935
492,023	6865,76465
492,27	6562,59372
492,518	6993,70031
492,766	6956,30538
493,014	7365,60435
493,261	7442,32843
493,509	7617,39266
493,757	7454,13157
494,004	7617,39266
494,252	8112,89026
494,499	8008,70254
494,747	7920,23103
494,995	8226,89183
495,242	8411,6186
495,49	8647,37657
495,737	8621,83962
495,985	8794,68822
496,232	8971,42364
496,48	9169,7089
496,727	9283,55077
496,975	9775,99578
497,222	9564,15055
497,469	10111,27974
497,717	10097,55803
497,964	10381,73404
498,212	10493,41008
498,459	10912,50812
498,706	10896,84598
498,954	11131,73626
499,201	11294,14928
499,448	11478,03444
499,695	11483,90219
499,943	12121,18899
500,19	12207,15091
500,437	12332,16417
500,684	12423,95396
500,931	12683,62226
501,179	13138,25482
501,426	13196,76581
501,673	13169,4614
501,92	13419,05492
502,167	13758,1784
502,414	14492,29228
502,661	14315,17328
502,908	14546,78021
503,155	14760,79374
503,402	14793,86202
503,649	14996,12443
503,896	15553,96094
504,143	15532,58921
504,39	15860,8617
504,637	15979,31165
504,884	16355,88784
505,131	16416,04395
505,378	16976,61921
505,624	16910,69067
505,871	17420,52496
506,118	17282,92081
506,365	17532,91713
506,612	17627,85757
506,858	18563,16996
507,105	18263,11765
507,352	18656,07166
507,599	18609,62183
507,845	18425,73768
508,092	19043,07743
508,339	19876,66366
508,585	19549,86598
508,832	19967,5357
509,079	19984,93614
509,325	20334,84073
509,572	20613,17154
509,818	20758,12129
510,065	20618,96971
510,311	21362,96012
510,558	21304,99331
510,804	21753,25027
511,051	21359,09569
511,297	22085,55781
511,544	22417,8585
511,79	22126,12958
512,037	22095,21777
512,283	22667,0854
512,529	22562,75739
512,776	22902,7936
513,022	22900,86154
513,268	23611,91631
513,515	23812,89382
513,761	24158,8455
514,007	23617,71353
514,254	24110,52499
514,5	24044,81087
514,746	24566,71828
514,992	24605,384
515,238	24810,3275
515,485	24615,05056
515,731	25568,48395
515,977	25214,49572
516,223	25291,86186
516,469	25611,04669
516,715	25901,28864
516,961	25754,22354
517,207	26058,05065
517,453	26119,98764
517,699	26793,80021
517,945	26052,24424
518,191	26354,22045
518,437	26487,81578
518,683	26902,27483
518,929	26762,80986
519,175	26642,7321
519,421	27239,40658
519,667	27470,05133
519,913	27262,66196
520,159	27522,39158
520,404	27380,88685
520,65	27838,44532
520,896	27607,69415
521,142	28137,16839
521,388	27693,00593
521,633	28463,18722
521,879	27888,87075
522,125	28352,55704
522,37	28414,66308
522,616	28597,1313
522,862	28569,95216
523,107	28585,48296
523,353	28799,06719
523,599	29195,34884
523,844	28797,12521
524,09	29179,80388
524,335	29265,30579
524,581	29018,54677
524,826	29022,43202
525,072	29654,09565
525,317	29523,8243
525,563	29426,62453
525,808	29869,97876
526,054	29871,924
526,299	29321,66554
526,545	29940,01131
526,79	29245,87255
527,035	29755,22062
527,281	29733,82742
527,526	29827,18507
527,771	29833,0204
528,017	30148,21171
528,262	29702,71135
528,507	29959,46623
528,752	30060,64197
528,998	29947,7932
529,243	29739,66186
529,488	30566,78031
529,733	30154,05015
529,978	30150,15785
530,224	30428,52211
530,469	30263,04494
530,714	29671,59686
530,959	30847,29377
531,204	31090,90812
531,449	30237,74079
531,694	30017,83477
531,939	30551,20027
532,184	30321,4433
532,429	30580,4132
532,674	30290,29679
532,919	30576,51805
533,164	30465,51754
533,409	30763,51484
533,654	30146,26557
533,899	30759,61845
534,144	30233,84793
534,388	30671,95668
534,633	30572,62294
534,878	30333,12367
535,123	30656,37378
535,368	30755,72208
535,612	29984,75857
535,857	30722,60406
536,102	30578,46562
536,347	30568,72785
536,591	30607,67994
536,836	30985,6537
537,081	30531,7258
537,325	30412,94578
537,57	30693,38387
537,815	30335,07042
538,059	30352,59147
538,304	30292,2434
538,548	30502,51534
538,793	30525,88359
539,037	30303,92318
539,282	30798,58358
539,526	30060,64197
539,771	30360,37878
540,015	30457,72883
540,26	30444,09884
540,504	30387,63515
540,749	30921,34132
540,993	30093,72236
541,237	30897,95683
541,482	30440,20462
541,726	30496,67343
541,97	30311,70984
542,215	30771,30771
542,459	30214,38407
542,703	30138,4811
542,948	30305,86984
543,192	30759,61845
543,436	30183,24321
543,68	30274,72415
543,924	30157,94247
544,169	30521,98882
544,413	30368,16618
544,657	30301,97654
544,901	29708,5455
545,145	30229,95511
545,389	30144,31944
545,633	29860,25266
545,877	30360,37878
546,121	30228,00871
546,365	29788,28432
546,609	30056,75028
546,853	29914,72084
547,097	30226,06231
547,341	29700,76665
547,585	30274,72415
547,829	29833,0204
548,073	29868,03353
548,317	30237,74079
548,561	29803,84432
548,805	30097,61429
549,048	29912,77547
549,292	29821,3498
549,536	29940,01131
549,78	29624,92805
550,023	29652,1511
550,267	29551,04293
550,511	29906,93937
550,755	29622,98359
550,998	29387,74881
551,242	29191,46257
551,486	29681,31997
551,729	29362,48087
551,973	29422,73685
552,216	29311,94799
552,46	29463,55868
552,704	29308,06101
552,947	29646,31749
553,191	29185,6332
553,434	29139,00013
553,678	28997,17832
553,921	29210,89418
554,165	28952,50106
554,408	29257,53243
554,652	28608,77983
554,895	28942,78901
555,138	28832,08164
555,382	28907,82681
555,625	28801,00917
555,868	29308,06101
556,112	28655,37592
556,355	29096,25608
556,598	28428,24951
556,842	28665,08384
557,085	28309,86228
557,328	28375,84617
557,571	28137,16839
557,814	29368,31184
558,058	28399,13606
558,301	29197,29199
558,544	28581,60023
558,787	28426,30857
559,03	28595,1899
559,273	28608,77983
559,516	28575,77617
559,759	28843,73419
560,003	28579,65887
560,246	28659,25907
560,489	28736,9267
560,732	29177,86079
560,975	28655,37592
561,217	28888,40416
561,46	28913,65372
561,703	28824,31339
561,946	29074,8851
562,189	29560,76416
562,432	28558,30428
562,675	29517,99189
562,918	29018,54677
563,161	29350,81908
563,403	29414,96157
563,646	29893,32204
563,889	29405,24259
564,132	29558,8199
564,374	29403,29882
564,617	29675,48609
564,86	29552,98717
565,102	29936,1204
565,345	29560,76416
565,588	29638,53942
565,83	29339,1575
566,073	29928,33865
566,316	29613,2614
566,558	29737,71704
566,801	29368,31184
567,043	29525,76845
567,286	29321,66554
567,528	29564,65269
567,771	29265,30579
568,013	29173,97461
568,256	29210,89418
568,498	28964,15571
568,741	28950,55864
568,983	29092,37039
569,225	28335,09069
569,468	29076,82789
569,71	28366,14227
569,952	29036,03057
570,195	28142,98886
570,437	28377,78697
570,679	28282,69421
570,922	28350,61631
571,164	27902,4474
571,406	27774,44861
571,648	27452,60534
571,891	28434,07234
572,133	27512,69869
572,375	27611,57176
572,617	27408,02283
572,859	27894,68929
573,101	27423,52951
573,343	27256,84805
573,585	27167,70655
573,827	27402,20791
574,069	26607,87372
574,312	27010,76268
574,554	27109,57585
574,795	26518,79703
575,037	26648,54195
575,279	26855,78411
575,521	26387,13355
575,763	26478,13434
576,005	26466,51675
576,247	26731,82055
576,489	26007,7295
576,731	26540,09722
576,973	25980,63447
577,214	26361,96461
577,456	25930,31694
577,698	26214,83578
577,94	25531,72642
578,181	25895,48307
578,423	25523,98814
578,665	25618,78554
578,907	26139,3437
579,148	25570,41859
579,39	25562,68005
579,632	25357,62667
579,873	25303,46718
580,115	25309,26987
580,356	25079,11562
580,598	25446,60796
580,839	25491,10097
581,081	25065,57834
581,323	25044,30573
581,564	24961,15219
581,806	24363,7373
582,047	24984,35735
582,288	24377,26865
582,53	24572,51808
582,771	24905,07457
583,013	24994,02627
583,254	24483,58994
583,495	24806,46039
583,737	24390,80011
583,978	24537,71957
584,219	24381,13477
584,461	24678,85132
584,702	24220,69739
584,943	24354,0721
585,184	24280,61823
585,426	24452,65946
585,667	23611,91631
585,908	24025,48356
586,149	24040,94539
586,39	23926,91685
586,631	23580,99797
586,873	23917,25368
587,114	23559,74179
587,355	23571,33605
587,596	23646,69983
587,837	23511,43286
588,078	23115,32471
588,319	23501,77116
588,56	23376,17166
588,801	23393,56209
589,042	22537,64151
589,283	23070,88568
589,524	22754,02616
589,765	22651,62934
590,005	22669,01741
590,246	22587,87332
590,487	22533,77753
590,728	22390,81079
590,969	22236,25257
591,21	22182,15712
591,45	21836,32833
591,691	21917,47349
591,932	21907,81339
592,173	21857,58071
592,413	21730,06551
592,654	21415,12951
592,895	21610,27619
593,135	21689,49199
593,376	21502,07707
593,617	22145,44944
593,857	21250,89013
594,098	21254,75467
594,338	21214,17679
594,579	21281,80633
594,819	20982,29338
595,06	21221,90595
595,3	20806,43589
595,541	20995,8204
595,781	20785,17758
596,022	21030,60389
596,262	21088,57545
596,503	20810,30102
596,743	20785,17758
596,983	21190,98922
597,224	21266,34827
597,464	21210,31221
597,704	20738,79517
597,945	21511,7378
598,185	20845,08691
598,425	21113,69612
598,666	20920,45471
598,906	20785,17758
599,146	20935,91451
599,386	20752,32347
599,626	20586,11323
599,867	20705,94042
600,107	20224,65722
600,347	20311,64474
600,587	20856,68209
600,827	20506,86907
601,067	20338,7067
601,307	20667,28718
601,547	20118,33344
601,787	20649,89301
602,027	20352,23754
602,267	20653,75839
602,507	20327,10877
602,747	20852,81704
602,987	20678,88322
603,227	20603,50789
603,467	20754,25608
603,707	20856,68209
603,947	20377,36598
604,187	20715,60363
604,426	20504,93625
604,666	20897,26485
604,906	20332,90775
605,146	20649,89301
605,386	20441,15213
605,625	20941,71191
605,865	20361,90237
606,105	20725,2668
606,344	20903,06233
606,584	21459,56959
606,824	22153,17738
607,063	23412,88488
607,303	24897,3399
607,543	26700,83229
607,782	27828,74851
608,022	29471,33457
608,261	29669,65226
608,501	29825,23997
608,74	29207,00781
608,98	28397,19521
609,219	27654,2267
609,459	26451,02684
609,698	25069,44612
609,938	24595,71748
610,177	24272,8864
610,416	23695,01098
610,656	23356,84907
610,895	23598,38949
611,134	24224,5632
611,374	26143,21495
611,613	28047,92688
611,852	31541,39032
612,092	34780,43318
612,331	37569,38933
612,57	40042,47241
612,809	42181,44685
613,049	41833,71486
613,288	41638,02025
613,527	40255,21727
613,766	39377,14986
614,005	36797,54021
614,244	35267,66278
614,483	32889,2657
614,722	30880,4191
614,961	28595,1899
615,2	27233,59284
615,439	24891,53891
615,678	24147,24847
615,917	22686,4055
616,156	22164,76928
616,395	21127,22254
616,634	20591,91146
616,873	19903,73247
617,112	19663,96343
617,351	18985,03495
617,59	18994,7089
617,829	18839,91602
618,068	19002,448
618,306	19006,31753
618,545	19273,28501
618,784	18474,13142
619,023	18652,20092
619,261	18160,4983
619,5	18503,16657
619,739	17870,00578
619,977	17844,82544
620,216	17488,34961
620,455	17606,54532
620,693	17360,44709
620,932	17058,05267
621,171	17139,47773
621,409	16674,07693
621,648	16584,84264
621,886	16555,74218
622,125	16699,29339
622,363	16600,36242
622,602	16429,62689
622,84	16280,20045
623,079	16435,44808
623,317	16534,40112
623,556	16544,10168
623,794	16664,37807
624,032	16836,99918
624,271	16561,56237
624,509	16460,67267
624,747	16732,26748
624,986	16866,08877
625,224	16635,28073
625,462	16835,05984
625,7	17176,31014
625,939	16792,393
626,177	16745,84463
626,415	16996,0089
626,653	16792,393
626,891	16765,24013
627,13	16844,75652
627,368	17112,33697
627,606	17757,65725
627,844	18274,73425
628,082	19066,29362
628,32	20290,3815
628,558	22904,72567
628,796	25901,28864
629,034	30617,41838
629,272	37073,74932
629,51	43401,41427
629,748	49362,3474
629,986	54874,81672
630,224	57240,1994
630,462	59413,84583
630,7	58664,56539
630,938	57779,85016
631,175	54384,78217
631,413	49773,40438
631,651	46359,70535
631,889	42085,48531
632,127	38136,81588
632,364	34817,74334
632,602	31816,5442
632,84	29554,93141
633,078	28781,5896
633,315	29304,17405
633,553	31176,68575
633,791	34125,03864
634,028	36884,33016
634,266	40480,02006
634,503	41937,59771
634,741	42047,50805
634,979	40722,87763
635,216	39262,07267
635,454	36281,09576
635,691	33349,13646
635,929	30296,13663
636,166	27883,05226
636,404	24526,12022
636,641	22817,78327
636,878	20255,58659
637,116	18359,91848
637,353	16912,62983
637,591	15416,00395
637,828	13875,07301
638,065	12972,44227
638,302	11867,13781
638,54	11315,67064
638,777	10428,75792
639,014	10597,23153
639,252	9899,54126
639,489	9701,46523
639,726	9216,8181
639,963	9071,55471
640,2	8987,13139
640,437	8700,41209
640,675	8329,08643
640,912	8613,98193
641,149	8439,1274
641,386	8230,82264
641,623	8063,74675
641,86	8063,74675
642,097	7930,06166
642,334	7784,55678
642,571	7790,45611
642,808	7713,76175
643,045	7816,01939
643,282	7721,62814
643,519	7640,99422
643,756	7574,12151
643,993	7762,92558
644,229	7605,59164
644,466	7530,84827
644,703	7581,98914
644,94	7780,62388
645,177	7957,5868
645,413	8071,60991
645,65	8941,97069
645,887	9387,56255
646,124	10924,25447
646,36	11763,53197
646,597	12917,81147
646,834	13202,61659
647,07	14252,87754
647,307	13984,15417
647,544	13627,61916
647,78	13220,16858
648,017	12519,63451
648,253	12218,87203
648,49	11333,27846
648,726	10518,8773
648,963	10075,99475
649,199	9157,93111
649,436	8782,90435
649,672	8366,42348
649,909	7977,24707
650,145	7550,51818
650,382	7361,66961
650,618	7157,04073
650,854	7188,52493
651,091	6836,23879
651,327	6824,42822
651,563	6938,59152
651,8	6977,95524
652,036	6651,19138
652,272	6466,11275
652,508	6668,91006
652,745	6336,14603
652,981	6273,12672
653,217	6322,36084
653,453	5965,86167
653,689	6091,92813
653,925	5900,85392
654,161	5869,33388
654,398	5595,47367
654,634	5435,86257
654,87	5518,62596
655,106	5459,5097
655,342	5349,15341
655,578	5451,62736
655,814	5408,2738
656,05	5228,93538
656,286	5258,49799
656,522	5364,91906
656,757	4982,56088
656,993	5362,94836
657,229	4913,57009
657,465	4937,22436
657,701	4730,23997
657,937	4724,32583
658,173	4696,72625
658,408	4661,24055
658,644	4535,06456
658,88	4424,6549
659,116	4744,03959
659,351	4682,92633
659,587	4606,03944
659,823	4432,54147
660,058	4381,27829
660,294	4225,51073
660,53	4353,6746
660,765	4152,55319
661,001	4121,00339
661,236	4166,35611
661,472	3900,14549
661,707	4097,34082
661,943	3949,44549
662,178	3957,33342
662,414	3764,07374
662,649	3878,45326
662,885	3854,78884
663,12	3801,54331
663,356	3624,05253
663,591	3641,80198
663,826	3817,31985
664,062	3695,04985
664,297	3482,05415
664,532	3539,24852
664,768	3501,77644
665,003	3584,60902
665,238	3661,5235
665,474	3428,80356
665,709	3367,66323
665,944	3288,77135
666,179	3456,41506
666,414	3369,63551
666,649	3280,8821
666,885	3367,66323
667,12	3284,82673
667,355	3401,1919
667,59	3310,46674
667,825	3249,32496
668,06	3288,77135
668,295	3322,30055
668,53	3322,30055
668,765	3107,3156
669	3225,65698
669,235	3257,21426
669,47	3235,51865
669,705	3405,13643
669,94	3174,37601
670,175	3233,54632
670,409	3371,60779
670,644	3026,44764
670,879	3087,5918
671,114	3093,50895
671,349	3789,71086
671,584	3022,50284
671,818	3194,09952
672,053	2841,03945
672,288	2931,77171
672,522	2927,82685
672,757	2750,30615
672,992	2890,3506
673,226	2801,59031
673,461	2622,09449
673,696	2746,3612
673,93	2799,61785
674,165	2746,3612
674,399	2691,13175
674,634	2643,79197
674,868	2489,93619
675,103	2574,75438
675,337	2572,78187
675,572	2414,98008
675,806	2533,33162
676,041	2409,06248
676,275	2363,69409
676,51	2217,72531
676,744	2489,93619
676,978	2446,5406
677,213	2197,99971
677,447	2338,05102
677,681	2201,94483
677,916	2338,05102
678,15	2194,05458
678,384	2286,76476
678,618	2194,05458
678,853	2292,68241
679,087	2186,16434
679,321	2253,23135
679,555	2192,08202
679,789	2020,46842
680,023	2132,90507
680,257	2055,97479
680,491	1884,36026
680,726	2251,25879
680,96	2103,31653
681,194	1913,94904
681,428	2093,45368
681,662	1955,37329
681,896	2044,13934
682,13	1793,62117
682,364	1927,75713
682,597	1894,22319
682,831	1884,36026
683,065	1996,79748
683,299	1819,26485
683,533	1831,10038
683,767	1874,49733
684,001	1833,07297
684,234	1744,30636
684,468	1777,84043
684,702	1890,27802
684,936	1710,77225
685,169	1775,86784
685,403	1669,34774
685,637	1862,6618
685,87	1687,10111
686,104	1616,0876
686,338	1740,36117
686,571	1600,30681
686,805	1590,44381
687,038	1556,90961
687,272	1647,64917
687,506	1675,26553
687,739	1489,84116
687,973	1675,26553
688,206	1519,43019
688,44	1659,48475
688,673	1618,0602
688,906	1604,25201
689,14	1452,36169
689,373	1616,0876
689,607	1665,40255
689,84	1586,49861
690,073	1389,23835
690,307	1369,51229
690,54	1552,96441
690,773	1460,25211
691,006	1468,14252
691,24	1282,71757
691,473	1564,80001
691,706	1505,62198
691,939	1574,66302
692,173	1444,47128
692,406	1552,96441
692,639	1696,96409
692,872	1746,27895
693,105	1509,56718
693,338	1523,37539
693,571	1777,84043
693,804	1724,58042
694,037	1483,92335
694,27	1448,41649
694,503	1428,69045
694,736	1440,52607
694,969	1474,06033
695,202	1428,69045
695,435	1383,32053
695,668	1373,4575
695,901	1339,92319
696,134	1351,75883
696,367	1227,48452
696,599	1243,26539
696,832	1302,44365
697,065	1221,56669
697,298	1282,71757
697,53	1087,42906
697,763	1138,71701
697,996	1306,38887
698,229	1044,03153
698,461	1268,90931
698,694	1197,89536
698,927	1215,64886
699,159	1079,5386
699,392	1120,96349
699,624	1083,48383
699,857	1146,60746
700,09	1030,22321
700,322	1142,66223
700,555	986,82563
700,787	1049,94937
701,02	1034,16845
701,252	1024,30536
701,484	925,67442
701,717	1053,8946
701,949	1053,8946
702,182	1030,22321
702,414	1071,64814
702,646	923,7018
702,879	973,0173
703,111	1047,97676
703,343	957,23635
703,576	909,89345
703,808	1038,11368
704,04	888,1946
704,272	969,07206
704,505	876,35887
704,737	896,0851
704,969	925,67442
705,201	957,23635
705,433	854,66
705,665	1006,55181
705,897	878,33149
706,129	797,45383
706,362	765,89176
706,594	1590,44381
706,826	830,98849
707,058	959,20897
707,29	947,37325
707,522	951,31849
707,754	862,5505
707,985	742,22019
708,217	740,24756
708,449	746,16545
708,681	779,70017
708,913	840,85162
709,145	907,92083
709,377	878,33149
709,608	917,78394
709,84	913,83869
710,072	625,83462
710,304	769,83702
710,535	805,34434
710,767	702,76752
710,999	787,59069
711,231	714,60332
711,462	712,63069
711,694	702,76752
711,925	619,9167
712,157	925,67442
712,389	712,63069
712,62	726,43913
712,852	734,32966
713,083	811,26223
713,315	974,98992
713,546	655,42423
713,778	655,42423
714,009	706,71279
714,241	594,27233
714,472	823,09799
714,703	679,09588
714,935	592,29969
715,166	598,21762
715,397	734,32966
715,629	663,31478
715,86	675,15061
716,091	730,38439
716,323	783,64543
716,554	683,04116
716,785	481,83125
717,016	629,77991
717,248	535,0929
717,479	793,50857
717,71	578,49117
717,941	793,50857
718,172	641,61575
718,403	460,13201
718,634	724,46649
718,865	615,97141
719,096	700,79488
719,327	619,9167
719,558	541,01086
719,789	546,92881
720,02	509,44842
720,251	507,47577
720,482	629,77991
720,713	582,43646
720,944	580,46382
721,175	586,38175
721,406	627,80727
721,637	511,42108
721,868	546,92881
722,098	578,49117
722,329	651,47895
722,56	373,33472
722,791	412,7881
723,021	493,66719
723,252	497,6125
723,483	408,84276
723,713	438,43273
723,944	533,12025
724,175	460,13201
724,405	383,19807
724,636	531,1476
724,867	468,02264
725,097	416,73343
725,328	631,75255
725,558	515,36638
725,789	422,65142
726,019	379,25273
726,25	641,61575
726,48	209,60184
726,711	564,68264
726,941	511,42108
727,171	576,51853
727,402	351,63531
727,632	400,95209
727,862	377,28006
728,093	566,65529
728,323	280,6188
728,553	562,70999
728,784	471,96796
729,014	539,03821
729,244	310,20906
729,474	527,2023
729,705	379,25273
729,935	400,95209
730,165	517,33904
730,395	430,54208
730,625	322,04515
730,855	406,8701
731,085	558,7647
731,315	479,85859
731,545	385,17074
731,775	341,77193
732,005	468,02264
732,235	357,55333
732,465	314,15443
732,695	542,98351
732,925	410,81543
733,155	485,77656
733,385	351,63531
733,615	491,69453
733,845	314,15443
734,075	339,79925
734,305	456,18669
734,534	471,96796
734,764	406,8701
734,994	302,31833
735,224	580,46382
735,453	381,2254
735,683	448,29604
735,913	464,07733
736,142	225,38343
736,372	471,96796
736,602	438,43273
736,831	349,66263
737,061	286,53686
737,291	436,46007
737,52	286,53686
737,75	278,64611
737,979	343,74461
738,209	438,43273
738,438	462,10467
738,668	272,72805
738,897	343,74461
739,127	247,08307
739,356	436,46007
739,585	251,02846
739,815	333,88122
740,044	318,09979
740,273	501,55781
740,503	229,32882
740,732	278,64611
740,961	225,38343
741,191	260,89191
741,42	329,93586
741,649	446,32338
741,878	308,23638
742,108	357,55333
742,337	371,36205
742,566	361,49868
742,795	361,49868
743,024	229,32882
743,253	300,34565
743,482	284,56417
743,711	258,91922
743,94	322,04515
744,169	442,37806
744,398	324,01783
744,627	406,8701
744,856	251,02846
745,085	329,93586
745,314	288,50954
745,543	233,27421
745,772	314,15443
746,001	243,13768
746,23	298,37297
746,459	254,97384
746,687	219,46533
746,916	172,12046
747,145	302,31833
747,374	349,66263
747,603	300,34565
747,831	160,28421
748,06	227,35612
748,289	324,01783
748,517	213,54724
748,746	276,67342
748,975	458,15935
749,203	156,33879
749,432	221,43803
749,66	280,6188
749,889	316,12711
750,118	205,65644
750,346	164,22963
750,575	406,8701
750,803	290,48223
751,031	391,08875
751,26	517,33904
751,488	191,84752
751,717	329,93586
751,945	235,24691
752,174	219,46533
752,402	215,51994
752,63	410,81543
752,859	329,93586
753,087	247,08307
753,315	258,91922
753,543	170,14776
753,772	253,00115
754	235,24691
754,228	276,67342
754,456	424,62409
754,684	278,64611
754,913	205,65644
755,141	172,12046
755,369	201,71103
755,597	239,1923
755,825	197,76563
756,053	288,50954
756,281	290,48223
756,509	239,1923
756,737	280,6188
756,965	264,83729
757,193	160,28421
757,421	325,99051
757,649	181,984
757,877	132,66623
758,105	124,77536
758,332	166,20234
758,56	209,60184
758,788	296,40028
759,016	195,79293
759,244	183,9567
759,472	166,20234
759,699	191,84752
759,927	187,90211
760,155	251,02846
760,382	142,5298
760,61	320,07247
760,838	197,76563
761,065	108,9936
761,293	191,84752
761,521	185,92941
761,748	180,01129
761,976	185,92941
762,203	148,44794
762,431	126,74808
762,658	112,93904
762,886	105,04816
763,113	136,61166
763,341	108,9936
763,568	201,71103
763,796	75,45727
764,023	213,54724
764,25	197,76563
764,478	160,28421
764,705	168,17505
764,932	199,73833
765,16	205,65644
765,387	256,94653
765,614	201,71103
765,842	221,43803
766,069	197,76563
766,296	213,54724
766,523	168,17505
766,75	195,79293
766,978	166,20234
767,205	209,60184
767,432	324,01783
767,659	260,89191
767,886	105,04816
768,113	225,38343
768,34	120,82992
768,567	260,89191
768,794	158,3115
769,021	158,3115
769,248	144,50252
769,475	189,87482
769,702	193,82022
769,929	178,03859
770,156	178,03859
770,383	316,12711
770,609	166,20234
770,836	61,64815
771,063	144,50252
771,29	168,17505
771,517	241,16499
771,743	110,96632
771,97	211,57454
772,197	166,20234
772,424	24,16613
772,65	61,64815
772,877	237,2196
773,104	183,9567
773,33	114,91176
773,557	83,34818
773,783	152,39337
774,01	99,12999
774,236	249,05576
774,463	298,37297
774,69	286,53686
774,916	63,62088
775,143	215,51994
775,369	183,9567
775,595	73,48454
775,822	130,69351
776,048	233,27421
776,275	170,14776
776,501	146,47523
776,727	170,14776
776,954	73,48454
777,18	152,39337
777,406	69,53908
777,633	85,32091
777,859	195,79293
778,085	170,14776
778,311	264,83729
778,537	270,75536
778,764	116,88448
778,99	235,24691
779,216	195,79293
779,442	112,93904
779,668	47,83901
779,894	160,28421
780,12	136,61166
780,346	274,70074
780,572	107,02088
780,798	284,56417
781,024	126,74808
781,25	134,63894
781,476	53,75721
781,702	140,55709
781,928	63,62088
782,154	189,87482
782,38	201,71103
782,606	144,50252
782,831	223,41073
783,057	193,82022
783,283	225,38343
783,509	254,97384
783,735	272,72805
783,96	178,03859
784,186	183,9567
784,412	215,51994
784,637	229,32882
784,863	207,62914
785,089	132,66623
785,314	213,54724
785,54	166,20234
785,766	225,38343
785,991	253,00115
786,217	136,61166
786,442	95,18454
786,668	174,09317
786,893	258,91922
787,119	166,20234
787,344	288,50954
787,57	51,78448
787,795	351,63531
788,02	140,55709
788,246	118,8572
788,471	37,97532
788,696	164,22963
788,922	116,88448
789,147	132,66623
789,372	166,20234
789,598	286,53686
789,823	211,57454
790,048	223,41073
790,273	156,33879
790,499	193,82022
790,724	256,94653
790,949	243,13768
791,174	162,25692
791,399	136,61166
791,624	219,46533
791,849	381,2254
792,074	274,70074
792,299	254,97384
792,524	185,92941
792,749	270,75536
792,974	91,23909
793,199	223,41073
793,424	327,96319
793,649	172,12046
793,874	79,40272
794,099	195,79293
794,324	181,984
794,549	144,50252
794,774	124,77536
794,998	138,58437
795,223	247,08307
795,448	201,71103
795,673	205,65644
795,897	172,12046
796,122	219,46533
796,347	55,72995
796,571	156,33879
796,796	276,67342
797,021	152,39337
797,245	302,31833
797,47	150,42065
797,695	112,93904
797,919	150,42065
798,144	126,74808
798,368	260,89191
798,593	185,92941
798,817	138,58437
799,042	249,05576
799,266	181,984
799,491	178,03859
799,715	211,57454
799,939	239,1923
800,164	195,79293
800,388	107,02088
800,612	168,17505
800,837	128,72079
801,061	249,05576
801,285	203,68374
801,51	180,01129
801,734	158,3115
801,958	170,14776
802,182	176,06588
802,406	203,68374
802,631	77,43
802,855	99,12999
803,079	251,02846
803,303	91,23909
803,527	144,50252
803,751	223,41073
803,975	223,41073
804,199	65,59361
804,423	156,33879
804,647	241,16499
804,871	178,03859
805,095	185,92941
805,319	154,36608
805,543	243,13768
805,767	160,28421
805,991	124,77536
806,215	144,50252
806,438	65,59361
806,662	231,30151
806,886	343,74461
807,11	26,13888
807,334	253,00115
807,557	162,25692
807,781	174,09317
808,005	-1,47956
808,228	122,80264
808,452	39,94806
808,676	136,61166
808,899	126,74808
809,123	203,68374
809,347	81,37545
809,57	134,63894
809,794	260,89191
810,017	296,40028
810,241	187,90211
810,464	256,94653
810,688	174,09317
810,911	209,60184
811,135	120,82992
811,358	-56,71676
811,581	215,51994
811,805	174,09317
812,028	69,53908
812,251	138,58437
812,475	108,9936
812,698	59,67541
812,921	63,62088
813,145	164,22963
813,368	77,43
813,591	-44,88018
813,814	112,93904
814,038	197,76563
814,261	61,64815
814,484	-9,37056
814,707	8,38418
814,93	87,29363
815,153	87,29363
815,376	73,48454
815,599	176,06588
815,822	91,23909
816,045	213,54724
816,268	-15,28882
816,491	292,45491
816,714	114,91176
816,937	-25,15259
817,16	16,27516
817,383	118,8572
817,606	146,47523
817,829	239,1923
818,052	-25,15259
818,274	114,91176
818,497	20,22065
818,72	10,35692
818,943	95,18454
819,166	41,92079
819,388	215,51994
819,611	164,22963
819,834	55,72995
820,056	-23,17984
820,279	-11,34331
820,502	178,03859
820,724	199,73833
820,947	122,80264
821,169	114,91176
821,392	160,28421
821,614	168,17505
821,837	87,29363
822,06	164,22963
822,282	105,04816
822,504	162,25692
822,727	28,11162
822,949	79,40272
823,172	219,46533
823,394	47,83901
823,616	57,70268
823,839	65,59361
824,061	181,984
824,283	108,9936
824,506	71,51181
824,728	20,22065
824,95	138,58437
825,172	83,34818
825,395	18,2479
825,617	-50,79846
825,839	45,86627
826,061	258,91922
826,283	101,10271
826,505	260,89191
826,728	176,06588
826,95	128,72079
827,172	148,44794
827,394	278,64611
827,616	36,00258
827,838	162,25692
828,06	130,69351
828,282	144,50252
828,504	51,78448
828,726	18,2479
828,947	22,19339
829,169	247,08307
829,391	122,80264
829,613	176,06588
829,835	99,12999
830,057	2,46594
830,278	150,42065
830,5	77,43
830,722	178,03859
830,944	333,88122
831,165	122,80264
831,387	32,0571
831,609	-13,31607
831,83	41,92079
832,052	87,29363
832,274	203,68374
832,495	316,12711
832,717	36,00258
832,938	95,18454
833,16	55,72995
833,381	-25,15259
833,603	103,07543
833,824	128,72079
834,046	118,8572
834,267	166,20234
834,489	10,35692
834,71	-62,63505
834,931	134,63894
835,153	43,89353
835,374	59,67541
835,595	39,94806
835,817	43,89353
836,038	138,58437
836,259	65,59361
836,481	195,79293
836,702	39,94806
836,923	30,08436
837,144	-29,0981
837,365	170,14776
837,587	183,9567
837,808	126,74808
838,029	156,33879
838,25	178,03859
838,471	61,64815
838,692	51,78448
838,913	24,16613
839,134	219,46533
839,355	164,22963
839,576	132,66623
839,797	93,21181
840,018	237,2196
840,239	223,41073
840,46	-25,15259
840,681	156,33879
840,901	219,46533
841,122	51,78448
841,343	59,67541
841,564	41,92079
841,785	89,26636
842,005	26,13888
842,226	89,26636
842,447	49,81174
842,668	28,11162
842,888	20,22065
843,109	24,16613
843,33	268,78267
843,55	107,02088
843,771	128,72079
843,991	156,33879
844,212	162,25692
844,433	39,94806
844,653	148,44794
844,874	71,51181
845,094	97,15726
845,315	22,19339
845,535	118,8572
845,755	34,02984
845,976	99,12999
846,196	83,34818
846,417	18,2479
846,637	134,63894
846,857	95,18454
847,078	132,66623
847,298	140,55709
847,518	150,42065
847,738	-7,39781
847,959	130,69351
848,179	120,82992
848,399	164,22963
848,619	83,34818
848,839	158,3115
849,06	30,08436
849,28	154,36608
849,5	101,10271
849,72	57,70268
849,94	28,11162
850,16	85,32091
850,38	77,43
850,6	187,90211
850,82	178,03859
851,04	89,26636
851,26	85,32091
851,48	81,37545
851,7	26,13888
851,92	65,59361
852,14	8,38418
852,359	22,19339
852,579	-54,74399
852,799	201,71103
853,019	28,11162
853,239	79,40272
853,458	235,24691
853,678	51,78448
853,898	148,44794
854,117	180,01129
854,337	166,20234
854,557	57,70268
854,776	6,41143
854,996	116,88448
855,216	49,81174
855,435	36,00258
855,655	170,14776
855,874	65,59361
856,094	124,77536
856,313	63,62088
856,533	124,77536
856,752	89,26636
856,972	-27,12535
857,191	34,02984
857,411	256,94653
857,63	57,70268
857,849	-35,01638
858,069	108,9936
858,288	20,22065
858,507	85,32091
858,727	197,76563
858,946	45,86627
859,165	-84,33552
859,384	49,81174
859,604	69,53908
859,823	0,49319
860,042	803,37171
860,261	146,47523
860,48	241,16499
860,699	243,13768
860,918	91,23909
861,137	199,73833
861,356	-60,66229
861,576	-5,42506
861,795	105,04816
862,014	97,15726
862,233	95,18454
862,451	63,62088
862,67	189,87482
862,889	122,80264
863,108	24,16613
863,327	-27,12535
863,546	95,18454
863,765	99,12999
863,984	89,26636
864,202	51,78448
864,421	22,19339
864,64	75,45727
864,859	-5,42506
865,077	241,16499
865,296	136,61166
865,515	195,79293
865,733	108,9936
865,952	142,5298
866,171	-5,42506
866,389	103,07543
866,608	14,30242
866,826	108,9936
867,045	51,78448
867,264	20,22065
867,482	-19,23433
867,701	-13,31607
867,919	172,12046
868,137	105,04816
868,356	136,61166
868,574	-5,42506
868,793	126,74808
869,011	247,08307
869,229	51,78448
869,448	39,94806
869,666	39,94806
869,884	4,43868
870,103	79,40272
870,321	81,37545
870,539	-35,01638
870,757	185,92941
870,975	105,04816
871,194	87,29363
871,412	32,0571
871,63	223,41073
871,848	89,26636
872,066	75,45727
872,284	-27,12535
872,502	166,20234
872,72	185,92941
872,938	142,5298
873,156	148,44794
873,374	-44,88018
873,592	-19,23433
873,81	30,08436
874,028	39,94806
874,246	180,01129
874,464	209,60184
874,682	164,22963
874,9	69,53908
875,117	122,80264
875,335	116,88448
875,553	128,72079
875,771	-9,37056
875,988	97,15726
876,206	18,2479
876,424	53,75721
876,642	36,00258
876,859	57,70268
877,077	87,29363
877,294	20,22065
877,512	-17,26157
877,73	160,28421
877,947	47,83901
878,165	134,63894
878,382	144,50252
878,6	53,75721
878,817	99,12999
879,035	99,12999
879,252	138,58437
879,47	79,40272
879,687	116,88448
879,904	53,75721
880,122	85,32091
880,339	-36,98914
880,556	43,89353
880,774	34,02984
880,991	37,97532
881,208	243,13768
881,426	71,51181
881,643	37,97532
881,86	110,96632
882,077	-56,71676
882,294	-5,42506
882,512	178,03859
882,729	105,04816
882,946	134,63894
883,163	-72,49889
883,38	79,40272
883,597	152,39337
883,814	110,96632
884,031	28,11162
884,248	160,28421
884,465	20,22065
884,682	43,89353
884,899	32,0571
885,116	41,92079
885,333	83,34818
885,55	41,92079
885,766	112,93904
885,983	36,00258
886,2	138,58437
886,417	-25,15259
886,634	103,07543
886,85	213,54724
887,067	34,02984
887,284	105,04816
887,501	49,81174
887,717	20,22065
887,934	107,02088
888,151	91,23909
888,367	59,67541
888,584	24,16613
888,8	26,13888
889,017	140,55709
889,234	49,81174
889,45	93,21181
889,667	20,22065
889,883	79,40272
890,099	37,97532
890,316	91,23909
890,532	101,10271
890,749	6,41143
890,965	63,62088
891,181	73,48454
891,398	49,81174
891,614	112,93904
891,83	81,37545
892,047	91,23909
892,263	-19,23433
892,479	95,18454
892,695	55,72995
892,912	79,40272
893,128	93,21181
893,344	207,62914
893,56	134,63894
893,776	130,69351
893,992	154,36608
894,209	73,48454
894,425	20,22065
894,641	67,56634
894,857	116,88448
895,073	85,32091
895,289	0,49319
895,505	180,01129
895,721	-13,31607
895,937	81,37545
896,152	144,50252
896,368	225,38343
896,584	30,08436
896,8	158,3115
897,016	118,8572
897,232	59,67541
897,447	120,82992
897,663	2,46594
897,879	79,40272
898,095	36,00258
898,31	180,01129
898,526	36,00258
898,742	110,96632
898,957	-3,45231
899,173	6,41143
899,389	-72,49889
899,604	89,26636
899,82	43,89353
900,035	49,81174
900,251	164,22963
900,466	357,55333
900,682	146,47523
900,897	144,50252
901,113	24,16613
901,328	-76,44443
901,544	67,56634
901,759	81,37545
901,974	20,22065
902,19	59,67541
902,405	-50,79846
902,62	57,70268
902,836	284,56417
903,051	34,02984
903,266	41,92079
903,482	34,02984
903,697	36,00258
903,912	138,58437
904,127	87,29363
904,342	142,5298
904,557	193,82022
904,773	26,13888
904,988	97,15726
905,203	32,0571
905,418	55,72995
905,633	34,02984
905,848	146,47523
906,063	-15,28882
906,278	8,38418
906,493	83,34818
906,708	55,72995
906,923	124,77536
907,138	39,94806
907,352	39,94806
907,567	73,48454
907,782	103,07543
907,997	85,32091
908,212	154,36608
908,427	189,87482
908,641	79,40272
908,856	51,78448
909,071	34,02984
909,285	77,43
909,5	107,02088
909,715	201,71103
909,929	18,2479
910,144	-42,90742
910,359	140,55709
910,573	73,48454
910,788	77,43
911,002	91,23909
911,217	69,53908
911,431	101,10271
911,646	-31,07086
911,86	73,48454
912,075	243,13768
912,289	49,81174
912,504	-17,26157
912,718	189,87482
912,932	95,18454
913,147	-48,8257
913,361	63,62088
913,575	-40,93466
913,79	209,60184
914,004	103,07543
914,218	219,46533
914,432	-38,9619
914,646	136,61166
914,861	-25,15259
915,075	107,02088
915,289	45,86627
915,503	-27,12535
915,717	83,34818
915,931	144,50252
916,145	116,88448
916,359	310,20906
916,573	207,62914
916,787	156,33879
917,001	107,02088
917,215	34,02984
917,429	8,38418
917,643	91,23909
917,857	180,01129
918,071	156,33879
918,285	118,8572
918,499	170,14776
918,713	-33,04362
918,926	101,10271
919,14	-13,31607
919,354	178,03859
919,568	77,43
919,781	152,39337
919,995	-5,42506
920,209	12,32967
920,422	156,33879
920,636	-13,31607
920,85	138,58437
921,063	-94,19939
921,277	77,43
921,49	-25,15259
921,704	16,27516
921,917	-56,71676
922,131	55,72995
922,344	116,88448
922,558	41,92079
922,771	181,984
922,985	199,73833
923,198	99,12999
923,412	211,57454
923,625	79,40272
923,838	-15,28882
924,052	99,12999
924,265	101,10271
924,478	-40,93466
924,691	253,00115
924,905	201,71103
925,118	-5,42506
925,331	124,77536
925,544	-17,26157
925,757	63,62088
925,971	73,48454
926,184	75,45727
926,397	156,33879
926,61	93,21181
926,823	55,72995
927,036	142,5298
927,249	136,61166
927,462	14,30242
927,675	89,26636
927,888	110,96632
928,101	134,63894
928,314	233,27421
928,527	57,70268
928,74	-3,45231
928,953	221,43803
929,165	47,83901
929,378	128,72079
929,591	162,25692
929,804	65,59361
930,017	189,87482
930,229	36,00258
930,442	130,69351
930,655	105,04816
930,867	130,69351
931,08	47,83901
931,293	183,9567
931,505	-44,88018
931,718	79,40272
931,931	120,82992
932,143	158,3115
932,356	-11,34331
932,568	-177,05655
932,781	-7,39781
932,993	55,72995
933,206	28,11162
933,418	89,26636
933,631	199,73833
933,843	122,80264
934,055	0,49319
934,268	-29,0981
934,48	162,25692
934,692	43,89353
934,905	69,53908
935,117	8,38418
935,329	185,92941
935,541	116,88448
935,754	199,73833
935,966	85,32091
936,178	63,62088
936,39	6,41143
936,602	-104,06328
936,814	146,47523
937,027	-29,0981
937,239	87,29363
937,451	53,75721
937,663	73,48454
937,875	53,75721
938,087	12,32967
938,299	99,12999
938,511	164,22963
938,723	75,45727
938,935	37,97532
939,146	140,55709
939,358	215,51994
939,57	57,70268
939,782	97,15726
939,994	45,86627
940,206	187,90211
940,417	178,03859
940,629	-19,23433
940,841	95,18454
941,053	73,48454
941,264	108,9936
941,476	247,08307
941,688	65,59361
941,899	189,87482
942,111	99,12999
942,323	-25,15259
942,534	32,0571
942,746	162,25692
942,957	47,83901
943,169	6,41143
943,38	14,30242
943,592	-19,23433
943,803	61,64815
944,015	166,20234
944,226	10,35692
944,437	112,93904
944,649	152,39337
944,86	-29,0981
945,071	134,63894
945,283	20,22065
945,494	16,27516
945,705	16,27516
945,917	170,14776
946,128	20,22065
946,339	140,55709
946,55	8,38418
946,761	150,42065
946,973	152,39337
947,184	61,64815
947,395	85,32091
947,606	-7,39781
947,817	103,07543
948,028	-11,34331
948,239	34,02984
948,45	108,9936
948,661	229,32882
948,872	189,87482
949,083	128,72079
949,294	20,22065
949,505	-1,47956
949,716	201,71103
949,927	118,8572
950,138	154,36608
950,348	45,86627
950,559	132,66623
950,77	89,26636
950,981	174,09317
951,191	144,50252
951,402	199,73833
951,613	105,04816
951,824	-78,4172
952,034	79,40272
952,245	233,27421
952,456	0,49319
952,666	91,23909
952,877	122,80264
953,087	-23,17984
953,298	-52,77123
953,508	67,56634
953,719	97,15726
953,929	97,15726
954,14	71,51181
954,35	-46,85294
954,561	2,46594
954,771	193,82022
954,982	83,34818
955,192	95,18454
955,402	221,43803
955,613	221,43803
955,823	49,81174
956,033	14,30242
956,243	99,12999
956,454	185,92941
956,664	43,89353
956,874	221,43803
957,084	116,88448
957,294	-123,7911
957,505	14,30242
957,715	-40,93466
957,925	63,62088
958,135	187,90211
958,345	99,12999
958,555	85,32091
958,765	49,81174
958,975	67,56634
959,185	-17,26157
959,395	57,70268
959,605	152,39337
959,815	75,45727
960,025	152,39337
960,235	191,84752
960,445	122,80264
960,654	0,49319
960,864	57,70268
961,074	-46,85294
961,284	-113,92718
961,494	128,72079
961,703	162,25692
961,913	-7,39781
962,123	39,94806
962,332	124,77536
962,542	-129,70946
962,752	37,97532
962,961	225,38343
963,171	134,63894
963,38	57,70268
963,59	45,86627
963,8	156,33879
964,009	37,97532
964,219	16,27516
964,428	28,11162
964,637	140,55709
964,847	-1,47956
965,056	101,10271
965,266	154,36608
965,475	77,43
965,684	81,37545
965,894	10,35692
966,103	140,55709
966,312	-76,44443
966,522	-21,20708
966,731	-27,12535
966,94	162,25692
967,149	49,81174
967,359	95,18454
967,568	130,69351
967,777	-44,88018
967,986	168,17505
968,195	185,92941
968,404	24,16613
968,613	57,70268
968,822	95,18454
969,031	43,89353
969,24	101,10271
969,449	47,83901
969,658	20,22065
969,867	146,47523
970,076	77,43
970,285	144,50252
970,494	103,07543
970,703	53,75721
970,912	14,30242
971,12	-88,28107
971,329	154,36608
971,538	-54,74399
971,747	148,44794
971,956	144,50252
972,164	140,55709
972,373	211,57454
972,582	-11,34331
972,79	53,75721
972,999	-35,01638
973,208	69,53908
973,416	-68,55335
973,625	26,13888
973,833	152,39337
974,042	93,21181
974,25	-33,04362
974,459	51,78448
974,667	205,65644
974,876	158,3115
975,084	-44,88018
975,293	132,66623
975,501	-147,46457
975,709	71,51181
975,918	138,58437
976,126	-38,9619
976,334	180,01129
976,543	-102,0905
976,751	158,3115
976,959	-9,37056
977,168	118,8572
977,376	172,12046
977,584	122,80264
977,792	91,23909
978	49,81174
978,208	-23,17984
978,416	128,72079
978,625	49,81174
978,833	199,73833
979,041	47,83901
979,249	32,0571
979,457	110,96632
979,665	63,62088
979,873	55,72995
980,081	-11,34331
980,289	28,11162
980,496	114,91176
980,704	-11,34331
980,912	158,3115
981,12	34,02984
981,328	37,97532
981,536	22,19339
981,743	140,55709
981,951	174,09317
982,159	36,00258
982,367	26,13888
982,574	97,15726
982,782	231,30151
982,99	103,07543
983,197	61,64815
983,405	36,00258
983,613	-66,58059
983,82	4,43868
984,028	59,67541
984,235	14,30242
984,443	45,86627
984,65	239,1923
984,858	10,35692
985,065	120,82992
985,273	-111,9544
985,48	-5,42506
985,687	103,07543
985,895	59,67541
986,102	95,18454
986,31	81,37545
986,517	0,49319
986,724	122,80264
986,931	10,35692
987,139	233,27421
987,346	103,07543
987,553	-50,79846
987,76	-36,98914
987,967	47,83901
988,175	160,28421
988,382	75,45727
988,589	211,57454
988,796	217,49263
989,003	154,36608
989,21	8,38418
989,417	-21,20708
989,624	49,81174
989,831	120,82992
990,038	77,43
990,245	43,89353
990,452	-3,45231
990,659	28,11162
990,866	67,56634
991,073	57,70268
991,279	112,93904
991,486	148,44794
991,693	26,13888
991,9	2,46594
992,107	32,0571
992,313	103,07543
992,52	93,21181
992,727	126,74808
992,933	-70,52612
993,14	87,29363
993,347	-23,17984
993,553	69,53908
993,76	142,5298
993,966	126,74808
994,173	110,96632
994,38	91,23909
994,586	81,37545
994,793	158,3115
994,999	118,8572
995,205	91,23909
995,412	69,53908
995,618	-86,30829
995,825	237,2196
996,031	4,43868
996,237	53,75721
996,444	93,21181
996,65	118,8572
996,856	-35,01638
997,063	73,48454
997,269	22,19339
997,475	140,55709
997,681	118,8572
997,887	45,86627
998,094	8,38418
998,3	187,90211
998,506	61,64815
998,712	8,38418
998,918	160,28421
999,124	146,47523
999,33	-25,15259
999,536	18,2479
999,742	126,74808
999,948	118,8572
1000,154	53,75721
1000,36	160,28421
1000,566	36,00258
1000,772	8,38418
1000,978	150,42065
1001,184	81,37545
1001,389	138,58437
1001,595	65,59361
1001,801	158,3115
1002,007	36,00258
1002,212	20,22065
1002,418	132,66623
1002,624	0,49319
1002,83	-23,17984
1003,035	61,64815
1003,241	203,68374
1003,447	160,28421
1003,652	122,80264
1003,858	-7,39781
1004,063	85,32091
1004,269	73,48454
1004,474	221,43803
1004,68	49,81174
1004,885	83,34818
1005,091	18,2479
1005,296	47,83901
1005,502	146,47523
1005,707	87,29363
1005,912	183,9567
1006,118	170,14776
1006,323	-35,01638
1006,528	140,55709
1006,734	142,5298
1006,939	63,62088
1007,144	49,81174
1007,35	49,81174
1007,555	6,41143
1007,76	8,38418
1007,965	43,89353
1008,17	67,56634
1008,375	118,8572
1008,581	73,48454
1008,786	-15,28882
1008,991	69,53908
1009,196	34,02984
1009,401	134,63894
1009,606	162,25692
1009,811	114,91176
1010,016	-17,26157
1010,221	185,92941
1010,426	20,22065
1010,63	85,32091
1010,835	18,2479
1011,04	-29,0981
1011,245	168,17505
1011,45	73,48454
1011,655	2,46594
1011,859	130,69351
1012,064	166,20234
1012,269	20,22065
1012,474	0,49319
1012,678	122,80264
1012,883	-104,06328
1013,088	-15,28882
1013,292	41,92079
1013,497	79,40272
1013,702	-72,49889
1013,906	61,64815
1014,111	130,69351
1014,315	-109,98162
1014,52	-15,28882
1014,724	85,32091
1014,929	53,75721
1015,133	93,21181
1015,338	47,83901
1015,542	95,18454
1015,746	18,2479
1015,951	211,57454
1016,155	101,10271
1016,359	79,40272
1016,564	-19,23433
1016,768	8,38418
1016,972	73,48454
1017,176	-29,0981
1017,381	146,47523
1017,585	195,79293
1017,789	118,8572
1017,993	0,49319
1018,197	39,94806
1018,401	10,35692
1018,606	183,9567
1018,81	63,62088
1019,014	0,49319
1019,218	217,49263
1019,422	79,40272
1019,626	95,18454
1019,83	95,18454
1020,034	47,83901
1020,238	168,17505
1020,441	-54,74399
1020,645	79,40272
1020,849	-27,12535
1021,053	4,43868
1021,257	95,18454
1021,461	-3,45231
1021,664	16,27516
1021,868	215,51994
1022,072	128,72079
1022,276	-35,01638
1022,479	183,9567
1022,683	142,5298
1022,887	185,92941
1023,09	20,22065
1023,294	69,53908
1023,498	59,67541
1023,701	95,18454
1023,905	108,9936
1024,108	22,19339
1024,312	34,02984
1024,515	61,64815
1024,719	51,78448
1024,922	61,64815
1025,126	77,43
1025,329	205,65644
1025,532	81,37545
1025,736	-33,04362
1025,939	132,66623
1026,142	18,2479
1026,346	185,92941
1026,549	63,62088
1026,752	-52,77123
1026,956	164,22963
1027,159	59,67541
1027,362	101,10271
1027,565	150,42065
1027,768	110,96632
1027,971	195,79293
1028,175	65,59361
1028,378	6,41143
1028,581	91,23909
1028,784	-35,01638
1028,987	45,86627
1029,19	-58,68952
1029,393	41,92079
1029,596	6,41143
1029,799	231,30151
1030,002	89,26636
1030,205	37,97532
1030,408	189,87482
1030,61	-25,15259
1030,813	99,12999
1031,016	47,83901
1031,219	101,10271
1031,422	-50,79846
1031,624	136,61166
1031,827	81,37545
1032,03	39,94806
1032,233	-5,42506
1032,435	45,86627
1032,638	264,83729
1032,841	142,5298
1033,043	99,12999
1033,246	103,07543
1033,448	-33,04362
1033,651	164,22963
1033,853	47,83901
1034,056	148,44794
1034,258	71,51181
1034,461	61,64815
1034,663	61,64815
1034,866	83,34818
1035,068	57,70268
1035,271	91,23909
1035,473	22,19339
1035,675	53,75721
1035,878	227,35612
1036,08	28,11162
1036,282	112,93904
1036,484	302,31833
1036,687	53,75721
1036,889	-44,88018
1037,091	199,73833
1037,293	75,45727
1037,495	67,56634
1037,698	-13,31607
1037,9	32,0571
1038,102	146,47523
1038,304	203,68374
1038,506	164,22963
1038,708	79,40272
1038,91	32,0571
1039,112	108,9936
1039,314	57,70268
1039,516	144,50252
1039,718	12,32967
1039,92	-11,34331
1040,122	-100,11772
1040,323	28,11162
1040,525	83,34818
1040,727	183,9567
1040,929	-13,31607
1041,131	178,03859
1041,333	116,88448
1041,534	14,30242
1041,736	201,71103
1041,938	24,16613
1042,139	148,44794
1042,341	294,4276
1042,543	6,41143
1042,744	89,26636
1042,946	71,51181
1043,147	-5,42506
1043,349	110,96632
1043,55	116,88448
1043,752	59,67541
1043,953	83,34818
1044,155	91,23909
1044,356	47,83901
1044,558	108,9936
1044,759	-40,93466
1044,961	148,44794
1045,162	93,21181
1045,363	181,984
1045,565	-48,8257
1045,766	136,61166
1045,967	-13,31607
1046,168	108,9936
1046,37	87,29363
1046,571	132,66623
1046,772	16,27516
1046,973	245,11038
1047,174	26,13888
1047,376	36,00258
1047,577	57,70268
1047,778	75,45727
1047,979	110,96632
1048,18	166,20234
1048,381	26,13888
1048,582	217,49263
1048,783	144,50252
1048,984	51,78448
1049,185	209,60184
1049,386	110,96632
1049,587	148,44794
1049,788	126,74808
1049,988	77,43
1050,189	128,72079
1050,39	107,02088
1050,591	37,97532
1050,792	185,92941
1050,992	105,04816
1051,193	-23,17984
1051,394	108,9936
1051,594	-29,0981
1051,795	26,13888
1051,996	12,32967
1052,196	55,72995
1052,397	73,48454
1052,598	130,69351
1052,798	130,69351
